Magnetic Field (T)	Diode Voltage (V)	Hall probe (V)	Acquisition Time 		
Tesla	Volts	Volts	Seconds		
NaN	NaN	NaN	0.0000000E+0
NaN	NaN	NaN	100.0000015E-3
278.2587118E-3	411.1818838E-3	2.5757960E+0	200.0000030E-3
278.2326635E-3	457.3836595E-3	2.5755555E+0	300.0000119E-3
278.2630455E-3	451.0626273E-3	2.5758361E+0	400.0000060E-3
278.3169393E-3	402.5908914E-3	2.5763337E+0	500.0000000E-3
278.3804464E-3	343.8484388E-3	2.5769201E+0	600.0000238E-3
278.4366877E-3	323.9388446E-3	2.5774394E+0	699.9999881E-3
278.4959043E-3	376.5012061E-3	2.5779862E+0	800.0000119E-3
278.5194223E-3	465.6676956E-3	2.5782033E+0	900.0000358E-3
278.5732083E-3	479.8690057E-3	2.5787000E+0	1.0000000E+0
278.6537412E-3	481.9952966E-3	2.5794436E+0	1.1000000E+0
278.7162751E-3	362.2969454E-3	2.5800210E+0	1.2000000E+0
278.7763532E-3	440.9829650E-3	2.5805757E+0	1.3000001E+0
278.8587179E-3	427.6264609E-3	2.5813363E+0	1.4000000E+0
278.9116414E-3	479.8605564E-3	2.5818249E+0	1.5000000E+0
278.9566908E-3	491.2642546E-3	2.5822409E+0	1.6000000E+0
279.0386181E-3	434.7171166E-3	2.5829974E+0	1.7000000E+0
279.0958158E-3	377.9584662E-3	2.5835255E+0	1.8000001E+0
279.1586323E-3	399.4023191E-3	2.5841056E+0	1.9000000E+0
279.2403736E-3	392.4680538E-3	2.5848603E+0	2.0000000E+0
279.3130357E-3	187.9660224E-3	2.5855313E+0	2.1000001E+0
279.3835167E-3	353.0650247E-3	2.5861821E+0	2.2000000E+0
279.4389650E-3	382.0076549E-3	2.5866940E+0	2.3000000E+0
279.4896455E-3	405.4822250E-3	2.5871620E+0	2.4000001E+0
279.5505750E-3	396.3100116E-3	2.5877246E+0	2.5000000E+0
279.6189160E-3	433.9025899E-3	2.5883556E+0	2.6000001E+0
279.6651167E-3	497.1191076E-3	2.5887822E+0	2.7000000E+0
279.7304835E-3	567.9229356E-3	2.5893858E+0	2.8000000E+0
279.8022066E-3	564.4133344E-3	2.5900481E+0	2.9000001E+0
279.8677432E-3	493.0678659E-3	2.5906532E+0	3.0000000E+0
279.9179606E-3	473.4523534E-3	2.5911169E+0	3.1000001E+0
279.9833933E-3	387.4769844E-3	2.5917211E+0	3.2000000E+0
280.0722992E-3	367.3023189E-3	2.5925420E+0	3.3000000E+0
280.1327600E-3	366.3997549E-3	2.5931003E+0	3.4000001E+0
280.1813338E-3	500.0806100E-3	2.5935488E+0	3.5000000E+0
280.2380980E-3	580.1533702E-3	2.5940729E+0	3.6000001E+0
280.3018676E-3	511.0829435E-3	2.5946618E+0	3.7000000E+0
280.3790884E-3	560.0819384E-3	2.5953748E+0	3.8000000E+0
280.4263198E-3	463.5250373E-3	2.5958109E+0	3.9000001E+0
280.5156419E-3	422.4134490E-3	2.5966357E+0	4.0000000E+0
280.5749390E-3	495.0297452E-3	2.5971832E+0	4.0999999E+0
280.6344266E-3	410.3214280E-3	2.5977325E+0	4.2000003E+0
280.6941522E-3	461.6427821E-3	2.5982840E+0	4.3000002E+0
280.7493320E-3	359.7556047E-3	2.5987935E+0	4.4000001E+0
280.8246310E-3	422.8192964E-3	2.5994887E+0	4.5000000E+0
280.8796991E-3	458.1567751E-3	2.5999972E+0	4.5999999E+0
280.9658426E-3	387.2185828E-3	2.6007926E+0	4.7000003E+0
281.0189297E-3	360.6769450E-3	2.6012828E+0	4.8000002E+0
281.1036944E-3	473.7273958E-3	2.6020655E+0	4.9000001E+0
281.1591469E-3	370.1845068E-3	2.6025775E+0	5.0000000E+0
281.2463919E-3	266.4799112E-3	2.6033831E+0	5.0999999E+0
281.2578253E-3	325.5783951E-3	2.6034887E+0	5.2000003E+0
281.3620108E-3	433.5254796E-3	2.6044507E+0	5.3000002E+0
281.3926632E-3	484.0790570E-3	2.6047337E+0	5.4000001E+0
281.4606596E-3	548.5817226E-3	2.6053616E+0	5.5000000E+0
281.5303078E-3	401.4977580E-3	2.6060047E+0	5.5999999E+0
281.5903172E-3	387.7418390E-3	2.6065588E+0	5.7000003E+0
281.6380955E-3	433.9597907E-3	2.6070000E+0	5.8000002E+0
281.7182503E-3	421.1970418E-3	2.6077401E+0	5.9000001E+0
281.7696090E-3	360.9945745E-3	2.6082143E+0	6.0000000E+0
281.8643388E-3	287.7799013E-3	2.6090890E+0	6.0999999E+0
281.9324458E-3	426.2055567E-3	2.6097179E+0	6.2000003E+0
281.9815425E-3	412.7788890E-3	2.6101712E+0	6.3000002E+0
282.0566734E-3	254.0267687E-3	2.6108649E+0	6.4000001E+0
282.1163514E-3	432.1742541E-3	2.6114160E+0	6.5000000E+0
282.2175588E-3	390.9662411E-3	2.6123505E+0	6.5999999E+0
282.2737727E-3	315.0903269E-3	2.6128696E+0	6.7000003E+0
282.3092061E-3	490.6204791E-3	2.6131967E+0	6.8000002E+0
282.3897345E-3	488.4783005E-3	2.6139403E+0	6.9000001E+0
282.4508651E-3	440.1794823E-3	2.6145048E+0	7.0000000E+0
282.5211094E-3	383.0750379E-3	2.6151534E+0	7.0999999E+0
282.5821417E-3	365.2399191E-3	2.6157169E+0	7.2000003E+0
282.6188873E-3	354.1022052E-3	2.6160562E+0	7.3000002E+0
282.6988476E-3	425.7739899E-3	2.6167945E+0	7.4000001E+0
282.7574118E-3	403.3838614E-3	2.6173353E+0	7.5000000E+0
282.8558678E-3	470.3146320E-3	2.6182444E+0	7.5999999E+0
282.8842890E-3	624.4929611E-3	2.6185068E+0	7.7000003E+0
282.9750161E-3	568.1276853E-3	2.6193446E+0	7.8000002E+0
283.0583853E-3	579.4645470E-3	2.6201144E+0	7.9000001E+0
283.1051011E-3	603.9789133E-3	2.6205457E+0	8.0000000E+0
283.1882312E-3	488.2406870E-3	2.6213133E+0	8.1000004E+0
283.2342677E-3	496.3828896E-3	2.6217384E+0	8.1999998E+0
283.3343315E-3	397.7104888E-3	2.6226623E+0	8.3000002E+0
283.3818870E-3	396.4696001E-3	2.6231014E+0	8.4000006E+0
283.4378771E-3	569.1763642E-3	2.6236184E+0	8.5000000E+0
283.5090709E-3	488.2432353E-3	2.6242758E+0	8.6000004E+0
283.6096196E-3	298.2807622E-3	2.6252042E+0	8.6999998E+0
283.7069321E-3	142.9329615E-3	2.6261028E+0	8.8000002E+0
283.7338913E-3	383.6572281E-3	2.6263517E+0	8.9000006E+0
283.7924985E-3	468.7078730E-3	2.6268929E+0	9.0000000E+0
283.8594848E-3	423.1253610E-3	2.6275114E+0	9.1000004E+0
283.9202712E-3	360.5692183E-3	2.6280727E+0	9.1999998E+0
283.9752763E-3	374.1902265E-3	2.6285806E+0	9.3000002E+0
284.0394196E-3	409.9562695E-3	2.6291728E+0	9.4000006E+0
284.0933480E-3	478.2633557E-3	2.6296708E+0	9.5000000E+0
284.1602410E-3	473.8085467E-3	2.6302885E+0	9.6000004E+0
284.2259698E-3	392.0119952E-3	2.6308954E+0	9.6999998E+0
284.2973248E-3	484.7673541E-3	2.6315542E+0	9.8000002E+0
284.3685322E-3	456.1477125E-3	2.6322117E+0	9.9000006E+0
284.4354995E-3	371.1131925E-3	2.6328301E+0	10.0000000E+0
284.5141079E-3	360.9133411E-3	2.6335559E+0	10.1000004E+0
284.5808892E-3	351.1512773E-3	2.6341726E+0	10.1999998E+0
284.6389020E-3	313.3594791E-3	2.6347082E+0	10.3000002E+0
284.7358519E-3	226.4359413E-3	2.6356034E+0	10.4000006E+0
284.7837850E-3	381.9115448E-3	2.6360460E+0	10.5000000E+0
284.8404156E-3	371.3306008E-3	2.6365689E+0	10.6000004E+0
284.9076785E-3	371.6729336E-3	2.6371900E+0	10.6999998E+0
284.9731352E-3	386.4533131E-3	2.6377944E+0	10.8000002E+0
285.0286374E-3	377.4615794E-3	2.6383069E+0	10.9000006E+0
285.1090184E-3	323.8900829E-3	2.6390491E+0	11.0000000E+0
285.1902402E-3	285.8322177E-3	2.6397991E+0	11.1000004E+0
285.2421642E-3	229.9963675E-3	2.6402785E+0	11.1999998E+0
285.3282155E-3	252.9308292E-3	2.6410731E+0	11.3000002E+0
285.3725302E-3	255.8820253E-3	2.6414823E+0	11.4000006E+0
285.4480370E-3	332.3409188E-3	2.6421795E+0	11.5000000E+0
285.5203439E-3	350.9413435E-3	2.6428471E+0	11.6000004E+0
285.6076973E-3	185.3847725E-3	2.6436537E+0	11.6999998E+0
285.6484071E-3	199.5303262E-3	2.6440296E+0	11.8000002E+0
285.7275004E-3	235.2385395E-3	2.6447599E+0	11.9000006E+0
285.8027447E-3	231.6063851E-3	2.6454547E+0	12.0000000E+0
285.8376613E-3	367.2254685E-3	2.6457771E+0	12.1000004E+0
285.9038487E-3	473.7702512E-3	2.6463883E+0	12.1999998E+0
285.9568074E-3	532.5698271E-3	2.6468773E+0	12.3000002E+0
285.9961775E-3	554.9522078E-3	2.6472408E+0	12.4000006E+0
286.0447463E-3	517.5202858E-3	2.6476893E+0	12.5000000E+0
286.1442928E-3	417.2423331E-3	2.6486084E+0	12.6000004E+0
286.1882003E-3	373.7477650E-3	2.6490139E+0	12.6999998E+0
286.2913233E-3	397.2202099E-3	2.6499661E+0	12.8000002E+0
286.3237081E-3	406.0308396E-3	2.6502651E+0	12.9000006E+0
286.4048594E-3	399.4331401E-3	2.6510144E+0	13.0000000E+0
286.5030887E-3	309.5309536E-3	2.6519214E+0	13.1000004E+0
286.5720347E-3	365.5684689E-3	2.6525580E+0	13.1999998E+0
286.6390009E-3	404.6885690E-3	2.6531764E+0	13.3000002E+0
286.7127412E-3	449.2815682E-3	2.6538573E+0	13.4000006E+0
286.7657238E-3	372.8571257E-3	2.6543465E+0	13.5000000E+0
286.8252741E-3	455.4329222E-3	2.6548963E+0	13.6000004E+0
286.8895269E-3	472.2584159E-3	2.6554896E+0	13.6999998E+0
286.9648924E-3	389.1838563E-3	2.6561855E+0	13.8000002E+0
287.0388233E-3	390.7208850E-3	2.6568682E+0	13.9000006E+0
287.0994192E-3	405.7081446E-3	2.6574277E+0	14.0000000E+0
287.1320895E-3	444.6261154E-3	2.6577294E+0	14.1000004E+0
287.2154156E-3	425.4926440E-3	2.6584988E+0	14.1999998E+0
287.2741708E-3	463.0551235E-3	2.6590413E+0	14.3000002E+0
287.3489726E-3	532.9807916E-3	2.6597320E+0	14.4000006E+0
287.4343775E-3	450.2033366E-3	2.6605206E+0	14.5000000E+0
287.4901842E-3	397.7555830E-3	2.6610359E+0	14.6000004E+0
287.5742065E-3	309.4800563E-3	2.6618117E+0	14.6999998E+0
287.6479518E-3	262.1043786E-3	2.6624926E+0	14.8000002E+0
287.7165694E-3	273.3756572E-3	2.6631262E+0	14.9000006E+0
287.7556010E-3	439.7590265E-3	2.6634866E+0	15.0000000E+0
287.8187080E-3	438.8600218E-3	2.6640693E+0	15.1000004E+0
287.8830056E-3	532.0352948E-3	2.6646630E+0	15.1999998E+0
287.9041901E-3	498.7137135E-3	2.6648586E+0	15.3000002E+0
288.0107275E-3	370.8840852E-3	2.6658424E+0	15.4000006E+0
288.1093785E-3	327.5190943E-3	2.6667533E+0	15.5000000E+0
288.1389539E-3	495.4781282E-3	2.6670264E+0	15.6000004E+0
288.2073608E-3	423.6577526E-3	2.6676580E+0	15.6999998E+0
288.2750739E-3	346.8561187E-3	2.6682832E+0	15.8000002E+0
288.3442685E-3	402.2974699E-3	2.6689221E+0	15.9000006E+0
288.4234552E-3	383.8761787E-3	2.6696533E+0	16.0000000E+0
288.4581952E-3	312.0987617E-3	2.6699741E+0	16.1000004E+0
288.5289004E-3	402.6741159E-3	2.6706270E+0	16.2000008E+0
288.6054843E-3	272.4540281E-3	2.6713341E+0	16.3000011E+0
288.6824643E-3	249.9075299E-3	2.6720449E+0	16.3999996E+0
288.7450317E-3	309.9938418E-3	2.6726226E+0	16.5000000E+0
288.8152592E-3	300.8089131E-3	2.6732711E+0	16.6000004E+0
288.8938353E-3	166.3314875E-3	2.6739966E+0	16.7000008E+0
288.9509983E-3	213.3607985E-3	2.6745245E+0	16.8000011E+0
289.0227298E-3	235.8058530E-3	2.6751868E+0	16.8999996E+0
289.0787972E-3	276.3694975E-3	2.6757045E+0	17.0000000E+0
289.1128184E-3	453.1660616E-3	2.6760186E+0	17.1000004E+0
289.2084488E-3	393.5128949E-3	2.6769017E+0	17.2000008E+0
289.2644208E-3	383.0325023E-3	2.6774185E+0	17.3000011E+0
289.3421113E-3	350.0174395E-3	2.6781358E+0	17.3999996E+0
289.3792743E-3	442.5695755E-3	2.6784790E+0	17.5000000E+0
289.4562481E-3	438.6046534E-3	2.6791897E+0	17.6000004E+0
289.5191764E-3	411.1507642E-3	2.6797708E+0	17.7000008E+0
289.6160470E-3	309.7887258E-3	2.6806653E+0	17.8000011E+0
289.6974028E-3	347.6633205E-3	2.6814165E+0	17.8999996E+0
289.7392824E-3	372.3570215E-3	2.6818032E+0	18.0000000E+0
289.7966521E-3	406.5302695E-3	2.6823329E+0	18.1000004E+0
289.8704495E-3	389.5743525E-3	2.6830143E+0	18.2000008E+0
289.9208797E-3	424.1487744E-3	2.6834800E+0	18.3000011E+0
289.9812488E-3	535.2746458E-3	2.6840374E+0	18.3999996E+0
290.0379828E-3	480.2131542E-3	2.6845612E+0	18.5000000E+0
290.1214230E-3	321.7325996E-3	2.6853317E+0	18.6000004E+0
290.2084664E-3	328.6945290E-3	2.6861354E+0	18.7000008E+0
290.2736835E-3	263.5176485E-3	2.6867376E+0	18.8000011E+0
290.3475914E-3	286.9956850E-3	2.6874201E+0	18.8999996E+0
290.3897492E-3	329.7206608E-3	2.6878093E+0	19.0000000E+0
290.4380420E-3	355.3541792E-3	2.6882552E+0	19.1000004E+0
290.5163789E-3	330.8892709E-3	2.6889786E+0	19.2000008E+0
290.6265912E-3	282.4434402E-3	2.6899962E+0	19.3000011E+0
290.6531838E-3	259.9795585E-3	2.6902418E+0	19.3999996E+0
290.7372883E-3	313.7080792E-3	2.6910184E+0	19.5000000E+0
290.8061449E-3	222.0278306E-3	2.6916542E+0	19.6000004E+0
290.8440023E-3	390.6415808E-3	2.6920037E+0	19.7000008E+0
290.9048658E-3	487.6303840E-3	2.6925657E+0	19.8000011E+0
290.9822591E-3	382.9881045E-3	2.6932803E+0	19.8999996E+0
291.0665741E-3	334.4139706E-3	2.6940589E+0	20.0000000E+0
291.1263215E-3	484.8435839E-3	2.6946105E+0	20.1000004E+0
291.1801947E-3	486.1985440E-3	2.6951080E+0	20.2000008E+0
291.2627616E-3	456.8766985E-3	2.6958704E+0	20.3000011E+0
291.3381562E-3	462.5216589E-3	2.6965665E+0	20.3999996E+0
291.4300073E-3	302.8778639E-3	2.6974147E+0	20.5000000E+0
291.4668641E-3	312.4249747E-3	2.6977550E+0	20.6000004E+0
291.5242942E-3	307.6816446E-3	2.6982853E+0	20.7000008E+0
291.6073829E-3	197.7953207E-3	2.6990525E+0	20.8000011E+0
291.6424783E-3	341.0734772E-3	2.6993765E+0	20.8999996E+0
291.7381690E-3	432.9152694E-3	2.7002601E+0	21.0000000E+0
291.7937807E-3	464.5106865E-3	2.7007736E+0	21.1000004E+0
291.8574905E-3	447.7960197E-3	2.7013619E+0	21.2000008E+0
291.9288935E-3	462.4834924E-3	2.7020212E+0	21.3000011E+0
291.9860599E-3	506.7004955E-3	2.7025490E+0	21.3999996E+0
292.0733681E-3	471.1359522E-3	2.7033552E+0	21.5000000E+0
292.1564698E-3	371.0336201E-3	2.7041225E+0	21.6000004E+0
292.2017236E-3	286.9124914E-3	2.7045404E+0	21.7000008E+0
292.2673054E-3	423.5842979E-3	2.7051459E+0	21.8000011E+0
292.3466557E-3	456.0522369E-3	2.7058786E+0	21.8999996E+0
292.4131387E-3	372.1937345E-3	2.7064925E+0	22.0000000E+0
292.4632421E-3	305.3224859E-3	2.7069551E+0	22.1000004E+0
292.5191448E-3	291.7392318E-3	2.7074713E+0	22.2000008E+0
292.5921394E-3	386.8299591E-3	2.7081453E+0	22.3000011E+0
292.6697082E-3	395.7701610E-3	2.7088616E+0	22.3999996E+0
292.7267539E-3	396.3400744E-3	2.7093883E+0	22.5000000E+0
292.7963396E-3	367.9996069E-3	2.7100308E+0	22.6000004E+0
292.8357192E-3	396.1088469E-3	2.7103945E+0	22.7000008E+0
292.9353590E-3	394.5734638E-3	2.7113145E+0	22.8000011E+0
293.0079307E-3	384.8151141E-3	2.7119846E+0	22.8999996E+0
293.0965987E-3	384.4598441E-3	2.7128033E+0	23.0000000E+0
293.1399285E-3	468.1178112E-3	2.7132034E+0	23.1000004E+0
293.2143269E-3	293.8903188E-3	2.7138904E+0	23.2000008E+0
293.2547564E-3	424.3159389E-3	2.7142637E+0	23.3000011E+0
293.3144092E-3	442.6198517E-3	2.7148145E+0	23.3999996E+0
293.4221682E-3	256.0809984E-3	2.7158095E+0	23.5000000E+0
293.5029103E-3	316.5518376E-3	2.7165550E+0	23.6000004E+0
293.5465569E-3	294.0403128E-3	2.7169581E+0	23.7000008E+0
293.6084863E-3	446.2078101E-3	2.7175299E+0	23.8000011E+0
293.6805384E-3	452.8915299E-3	2.7181952E+0	23.8999996E+0
293.7490744E-3	446.9795277E-3	2.7188280E+0	24.0000000E+0
293.8338821E-3	336.8163045E-3	2.7196111E+0	24.1000004E+0
293.8983562E-3	296.4981040E-3	2.7202064E+0	24.2000008E+0
293.9422821E-3	436.3165043E-3	2.7206120E+0	24.3000011E+0
293.9928782E-3	505.8708910E-3	2.7210792E+0	24.3999996E+0
294.0748961E-3	470.8116271E-3	2.7218365E+0	24.5000000E+0
294.1874295E-3	303.9018602E-3	2.7228756E+0	24.6000004E+0
294.1993449E-3	436.9264824E-3	2.7229856E+0	24.7000008E+0
294.2346732E-3	591.0358343E-3	2.7233118E+0	24.8000011E+0
294.3229607E-3	686.7745566E-3	2.7241271E+0	24.8999996E+0
294.3983362E-3	543.1874624E-3	2.7248230E+0	25.0000000E+0
294.4722101E-3	605.0961774E-3	2.7255052E+0	25.1000004E+0
294.5254436E-3	588.8463693E-3	2.7259967E+0	25.2000008E+0
294.6006359E-3	525.6579852E-3	2.7266910E+0	25.3000011E+0
294.6886492E-3	513.4339159E-3	2.7275037E+0	25.3999996E+0
294.7330035E-3	540.7699732E-3	2.7279132E+0	25.5000000E+0
294.7838293E-3	545.4603583E-3	2.7283825E+0	25.6000004E+0
294.8790619E-3	444.1071303E-3	2.7292619E+0	25.7000008E+0
294.9338038E-3	479.4716232E-3	2.7297673E+0	25.8000011E+0
295.0205450E-3	531.4529396E-3	2.7305683E+0	25.8999996E+0
295.0752025E-3	498.9625877E-3	2.7310730E+0	26.0000000E+0
295.1581421E-3	378.7917331E-3	2.7318388E+0	26.1000004E+0
295.2278300E-3	292.0878320E-3	2.7324823E+0	26.2000008E+0
295.3098110E-3	294.6312980E-3	2.7332393E+0	26.3000011E+0
295.3765230E-3	231.6610288E-3	2.7338552E+0	26.3999996E+0
295.4447830E-3	241.0432432E-3	2.7344855E+0	26.5000000E+0
295.4784918E-3	425.5127925E-3	2.7347968E+0	26.6000004E+0
295.5403721E-3	383.2802571E-3	2.7353682E+0	26.7000008E+0
295.6416627E-3	293.4934263E-3	2.7363034E+0	26.8000011E+0
295.7163109E-3	231.8847973E-3	2.7369927E+0	26.8999996E+0
295.7448438E-3	418.9255283E-3	2.7372562E+0	27.0000000E+0
295.8146010E-3	471.1797361E-3	2.7379003E+0	27.1000004E+0
295.8854115E-3	405.2462559E-3	2.7385541E+0	27.2000008E+0
295.9456193E-3	455.3565060E-3	2.7391101E+0	27.3000011E+0
296.0045914E-3	443.7854050E-3	2.7396546E+0	27.3999996E+0
296.0739218E-3	466.5168089E-3	2.7402948E+0	27.5000000E+0
296.1363146E-3	436.9506691E-3	2.7408709E+0	27.6000004E+0
296.2015560E-3	427.4457645E-3	2.7414733E+0	27.7000008E+0
296.2708976E-3	492.6368768E-3	2.7421136E+0	27.8000011E+0
296.3359856E-3	474.8201939E-3	2.7427145E+0	27.8999996E+0
296.4020814E-3	416.3753875E-3	2.7433249E+0	28.0000000E+0
296.4740732E-3	373.7168820E-3	2.7439896E+0	28.1000004E+0
296.5552140E-3	358.4765391E-3	2.7447388E+0	28.2000008E+0
296.6171194E-3	333.4801009E-3	2.7453104E+0	28.3000011E+0
296.6840621E-3	428.4927308E-3	2.7459286E+0	28.3999996E+0
296.7494541E-3	408.2354134E-3	2.7465324E+0	28.5000000E+0
296.8216816E-3	370.5062424E-3	2.7471993E+0	28.6000004E+0
296.8648578E-3	367.1861945E-3	2.7475979E+0	28.7000008E+0
296.9544989E-3	375.4399099E-3	2.7484257E+0	28.8000011E+0
297.0095134E-3	460.4188642E-3	2.7489336E+0	28.8999996E+0
297.0637883E-3	489.4786871E-3	2.7494348E+0	29.0000000E+0
297.1702430E-3	344.5344611E-3	2.7504178E+0	29.1000004E+0
297.2239112E-3	331.0830798E-3	2.7509133E+0	29.2000008E+0
297.2942695E-3	317.2674326E-3	2.7515630E+0	29.3000011E+0
297.3452416E-3	378.0452810E-3	2.7520336E+0	29.3999996E+0
297.4495489E-3	305.8234374E-3	2.7529968E+0	29.5000000E+0
297.4841672E-3	281.8837610E-3	2.7533164E+0	29.6000004E+0
297.5317287E-3	315.4517972E-3	2.7537556E+0	29.7000008E+0
297.6173577E-3	295.5980986E-3	2.7545462E+0	29.8000011E+0
297.7119345E-3	277.1168934E-3	2.7554195E+0	29.8999996E+0
297.7840123E-3	147.4235539E-3	2.7560851E+0	30.0000000E+0
297.8048403E-3	312.5260471E-3	2.7562774E+0	30.1000004E+0
297.8917307E-3	340.9382308E-3	2.7570797E+0	30.2000008E+0
297.9240803E-3	469.4038353E-3	2.7573784E+0	30.3000011E+0
298.0281625E-3	289.9888751E-3	2.7583395E+0	30.3999996E+0
298.1038905E-3	248.9479354E-3	2.7590387E+0	30.5000000E+0
298.1557274E-3	305.0608758E-3	2.7595173E+0	30.6000004E+0
298.2094045E-3	253.4972606E-3	2.7600130E+0	30.7000008E+0
298.2856130E-3	286.4446667E-3	2.7607166E+0	30.8000011E+0
298.3512043E-3	332.4548149E-3	2.7613223E+0	30.8999996E+0
298.4114461E-3	313.1979716E-3	2.7618785E+0	31.0000000E+0
298.4959236E-3	306.1466535E-3	2.7626586E+0	31.1000004E+0
298.5770493E-3	356.9933532E-3	2.7634077E+0	31.2000008E+0
298.6302287E-3	488.1522938E-3	2.7638987E+0	31.3000011E+0
298.7156900E-3	389.9111195E-3	2.7646878E+0	31.3999996E+0
298.7841707E-3	241.3776424E-3	2.7653201E+0	31.5000000E+0
298.8664958E-3	198.6681004E-3	2.7660803E+0	31.6000004E+0
298.9175238E-3	265.0562969E-3	2.7665515E+0	31.7000008E+0
298.9819654E-3	361.9404478E-3	2.7671465E+0	31.8000011E+0
299.0233975E-3	475.8756044E-3	2.7675291E+0	31.8999996E+0
299.0967005E-3	429.2902195E-3	2.7682059E+0	32.0000000E+0
299.1782557E-3	289.9233127E-3	2.7689590E+0	32.1000023E+0
299.2388522E-3	271.2187981E-3	2.7695185E+0	32.2000008E+0
299.3066519E-3	434.7091211E-3	2.7701445E+0	32.2999992E+0
299.3376088E-3	492.1962829E-3	2.7704304E+0	32.4000015E+0
299.4203624E-3	495.0965869E-3	2.7711945E+0	32.5000000E+0
299.5070567E-3	368.6861657E-3	2.7719950E+0	32.6000023E+0
299.5775669E-3	349.4692067E-3	2.7726460E+0	32.7000008E+0
299.6360959E-3	414.3400690E-3	2.7731865E+0	32.7999992E+0
299.7136266E-3	383.1038214E-3	2.7739024E+0	32.9000015E+0
299.7659965E-3	467.1286182E-3	2.7743859E+0	33.0000000E+0
299.8446602E-3	351.3244890E-3	2.7751123E+0	33.1000023E+0
299.9223441E-3	209.9953676E-3	2.7758296E+0	33.2000008E+0
299.9731564E-3	221.9717595E-3	2.7762988E+0	33.2999992E+0
300.0755029E-3	290.3994733E-3	2.7772438E+0	33.4000015E+0
300.1282213E-3	365.3731847E-3	2.7777306E+0	33.5000000E+0
300.1764767E-3	345.3852457E-3	2.7781761E+0	33.6000023E+0
300.2795997E-3	313.2315374E-3	2.7791283E+0	33.7000008E+0
300.3355220E-3	345.3335746E-3	2.7796447E+0	33.7999992E+0
300.4121411E-3	346.1960583E-3	2.7803522E+0	33.9000015E+0
300.4575424E-3	440.9382989E-3	2.7807714E+0	34.0000000E+0
300.5072447E-3	533.7752162E-3	2.7812303E+0	34.1000023E+0
300.5859380E-3	540.5508524E-3	2.7819570E+0	34.2000008E+0
300.6404849E-3	561.0731122E-3	2.7824606E+0	34.2999992E+0
300.7064371E-3	494.7639775E-3	2.7830696E+0	34.4000015E+0
300.7688755E-3	500.3882531E-3	2.7836461E+0	34.5000000E+0
300.8135667E-3	574.5358521E-3	2.7840588E+0	34.6000023E+0
300.8906143E-3	572.8112097E-3	2.7847702E+0	34.7000008E+0
300.9603352E-3	590.2857662E-3	2.7854140E+0	34.7999992E+0
301.0219378E-3	590.4297817E-3	2.7859828E+0	34.9000015E+0
301.0678905E-3	634.3767512E-3	2.7864071E+0	35.0000000E+0
301.1533473E-3	721.4410857E-3	2.7871962E+0	35.1000023E+0
301.2247889E-3	689.4531915E-3	2.7878559E+0	35.2000008E+0
301.2697594E-3	743.0434232E-3	2.7882711E+0	35.2999992E+0
301.3494488E-3	768.9196566E-3	2.7890069E+0	35.4000015E+0
301.4206345E-3	655.1427680E-3	2.7896642E+0	35.5000000E+0
301.4811126E-3	785.5187304E-3	2.7902226E+0	35.6000023E+0
301.5810691E-3	740.2648558E-3	2.7911456E+0	35.7000008E+0
301.5906388E-3	942.1368636E-3	2.7912340E+0	35.7999992E+0
301.6552597E-3	1.0124429E+0	2.7918307E+0	35.9000015E+0
301.7188171E-3	1.1116817E+0	2.7924175E+0	36.0000000E+0
301.7753762E-3	1.1140009E+0	2.7929398E+0	36.1000023E+0
301.8119190E-3	1.2955824E+0	2.7932772E+0	36.2000008E+0
301.8795880E-3	1.4021637E+0	2.7939020E+0	36.2999992E+0
301.9051042E-3	1.6660723E+0	2.7941376E+0	36.4000015E+0
301.9676778E-3	2.0009531E+0	2.7947154E+0	36.5000000E+0
301.9468615E-3	2.4012955E+0	2.7945232E+0	36.6000023E+0
301.9282619E-3	2.9847565E+0	2.7943514E+0	36.7000008E+0
301.9322042E-3	3.6633931E+0	2.7943879E+0	36.7999992E+0
301.8659168E-3	4.5312618E+0	2.7937758E+0	36.9000015E+0
301.8715648E-3	5.0026986E+0	2.7938279E+0	37.0000000E+0
302.0434270E-3	4.3727667E+0	2.7954148E+0	37.1000023E+0
302.2474440E-3	3.0823524E+0	2.7972987E+0	37.2000008E+0
302.4236973E-3	2.1864519E+0	2.7989261E+0	37.2999992E+0
302.5576353E-3	1.7359808E+0	2.8001628E+0	37.4000015E+0
302.6263511E-3	1.7089063E+0	2.8007973E+0	37.5000000E+0
302.7140867E-3	1.9240490E+0	2.8016074E+0	37.6000023E+0
302.6925526E-3	1.9226846E+0	2.8014086E+0	37.7000008E+0
302.9061146E-3	1.1578111E+0	2.8033806E+0	37.7999992E+0
303.2344732E-3	-433.3667906E-3	2.8064125E+0	37.9000015E+0
303.3895855E-3	-2.5802559E+0	2.8078447E+0	38.0000000E+0
303.6595999E-3	-3.9172168E+0	2.8103379E+0	38.1000023E+0
303.7936954E-3	-4.2513802E+0	2.8115761E+0	38.2000008E+0
303.9930002E-3	-3.7755439E+0	2.8134164E+0	38.2999992E+0
303.9148678E-3	-2.9705652E+0	2.8126950E+0	38.4000015E+0
303.8596773E-3	-2.3133586E+0	2.8121854E+0	38.5000000E+0
303.8526115E-3	-1.7763176E+0	2.8121201E+0	38.6000023E+0
303.8627795E-3	-1.3432675E+0	2.8122140E+0	38.7000008E+0
303.9171554E-3	-1.1292406E+0	2.8127161E+0	38.7999992E+0
303.9600875E-3	-933.9828212E-3	2.8131125E+0	38.9000015E+0
304.0107384E-3	-820.0534729E-3	2.8135802E+0	39.0000000E+0
304.0753566E-3	-887.8668550E-3	2.8141769E+0	39.1000023E+0
304.1059057E-3	-599.0685549E-3	2.8144590E+0	39.2000008E+0
304.1405368E-3	-563.7733024E-3	2.8147787E+0	39.2999992E+0
304.2486200E-3	-504.6356493E-3	2.8157767E+0	39.4000015E+0
304.2997360E-3	-357.3636858E-3	2.8162487E+0	39.5000000E+0
304.3649740E-3	-333.1655080E-3	2.8168511E+0	39.6000023E+0
304.4293101E-3	-366.3818541E-3	2.8174452E+0	39.7000008E+0
304.4834050E-3	-194.9932919E-3	2.8179446E+0	39.7999992E+0
304.5089559E-3	-162.8620270E-3	2.8181806E+0	39.9000015E+0
304.5708266E-3	14.7866218E-3	2.8187519E+0	40.0000000E+0
304.6247819E-3	85.7672568E-3	2.8192501E+0	40.1000023E+0
304.7115723E-3	47.5069735E-3	2.8200515E+0	40.2000008E+0
304.7698459E-3	36.7647438E-3	2.8205895E+0	40.2999992E+0
304.7935762E-3	70.0023939E-3	2.8208086E+0	40.4000015E+0
304.8937394E-3	212.2974081E-3	2.8217335E+0	40.5000000E+0
304.9517203E-3	245.1633692E-3	2.8222689E+0	40.6000023E+0
304.9952423E-3	331.6648006E-3	2.8226708E+0	40.7000008E+0
305.0863265E-3	396.4576689E-3	2.8235118E+0	40.7999992E+0
305.1513977E-3	260.4915431E-3	2.8241126E+0	40.9000015E+0
305.2060592E-3	233.5093474E-3	2.8246174E+0	41.0000000E+0
305.2946875E-3	222.6447570E-3	2.8254357E+0	41.1000023E+0
305.3700557E-3	172.9180604E-3	2.8261316E+0	41.2000008E+0
305.4855762E-3	-82.6019729E-3	2.8271983E+0	41.2999992E+0
305.5326724E-3	124.0363196E-3	2.8276332E+0	41.4000015E+0
305.5569864E-3	361.1237856E-3	2.8278577E+0	41.5000000E+0
305.6370658E-3	401.2943546E-3	2.8285971E+0	41.6000023E+0
305.6846380E-3	442.9684179E-3	2.8290364E+0	41.7000008E+0
305.7476718E-3	564.3020639E-3	2.8296184E+0	41.7999992E+0
305.7824683E-3	727.1466152E-3	2.8299397E+0	41.9000015E+0
305.8499127E-3	752.7566993E-3	2.8305624E+0	42.0000000E+0
305.9065004E-3	800.8432521E-3	2.8310850E+0	42.1000023E+0
305.9642606E-3	828.2038735E-3	2.8316183E+0	42.2000008E+0
306.0313983E-3	831.3137864E-3	2.8322382E+0	42.2999992E+0
306.1369693E-3	725.4736542E-3	2.8332130E+0	42.4000015E+0
306.1988691E-3	685.0068834E-3	2.8337846E+0	42.5000000E+0
306.2518373E-3	697.2535668E-3	2.8342737E+0	42.6000023E+0
306.3449593E-3	610.2606546E-3	2.8351335E+0	42.7000008E+0
306.4126423E-3	711.6226620E-3	2.8357585E+0	42.7999992E+0
306.5079917E-3	430.1018420E-3	2.8366389E+0	42.9000015E+0
306.6314131E-3	19.9243942E-3	2.8377785E+0	43.0000000E+0
306.7413354E-3	-273.6247002E-3	2.8387935E+0	43.1000023E+0
306.8083910E-3	-473.2561909E-3	2.8394127E+0	43.2000008E+0
306.8560615E-3	-279.3272224E-3	2.8398528E+0	43.2999992E+0
306.9189194E-3	-291.7123452E-3	2.8404332E+0	43.4000015E+0
306.9690681E-3	-80.1020278E-3	2.8408963E+0	43.5000000E+0
307.0211251E-3	-33.7822765E-3	2.8413770E+0	43.6000023E+0
307.0947280E-3	27.7868500E-3	2.8420566E+0	43.7000008E+0
307.1576457E-3	-48.0389304E-3	2.8426375E+0	43.7999992E+0
307.2232281E-3	36.4030312E-3	2.8432431E+0	43.9000015E+0
307.3045839E-3	17.3804898E-3	2.8439943E+0	44.0000000E+0
307.3442468E-3	103.6614385E-3	2.8443605E+0	44.1000023E+0
307.4334349E-3	141.5302920E-3	2.8451841E+0	44.2000008E+0
307.4887935E-3	170.6728287E-3	2.8456952E+0	44.2999992E+0
307.5653774E-3	160.7532914E-3	2.8464024E+0	44.4000015E+0
307.6119496E-3	222.8657503E-3	2.8468324E+0	44.5000000E+0
307.6411479E-3	452.1506436E-3	2.8471020E+0	44.6000023E+0
307.7116821E-3	479.8153848E-3	2.8477533E+0	44.7000008E+0
307.7770255E-3	555.7670904E-3	2.8483567E+0	44.7999992E+0
307.8253965E-3	666.7364631E-3	2.8488033E+0	44.9000015E+0
307.8997631E-3	564.2123708E-3	2.8494900E+0	45.0000000E+0
307.9271385E-3	757.6155504E-3	2.8497427E+0	45.1000023E+0
308.0037285E-3	772.5434530E-3	2.8504499E+0	45.2000008E+0
308.0633625E-3	767.2621809E-3	2.8510006E+0	45.2999992E+0
308.1319080E-3	736.6366388E-3	2.8516335E+0	45.4000015E+0
308.1917587E-3	786.9142763E-3	2.8521861E+0	45.5000000E+0
308.2576590E-3	933.9543177E-3	2.8527946E+0	45.6000023E+0
308.3421142E-3	931.8164980E-3	2.8535745E+0	45.7000008E+0
308.4007878E-3	972.6404576E-3	2.8541162E+0	45.7999992E+0
308.4605218E-3	878.4362363E-3	2.8546678E+0	45.9000015E+0
308.5676301E-3	540.8233362E-3	2.8556568E+0	46.0000000E+0
308.7088210E-3	27.4137684E-3	2.8569605E+0	46.1000023E+0
308.8237672E-3	-278.9668251E-3	2.8580219E+0	46.2000008E+0
308.8983707E-3	-343.3511328E-3	2.8587107E+0	46.2999992E+0
308.9724300E-3	-287.7596741E-3	2.8593946E+0	46.4000015E+0
309.0192508E-3	-130.5716585E-3	2.8598269E+0	46.5000000E+0
309.0730520E-3	-53.8598828E-3	2.8603237E+0	46.6000023E+0
309.1205297E-3	11.3034570E-3	2.8607620E+0	46.7000008E+0
309.2053162E-3	36.7711402E-3	2.8615449E+0	46.7999992E+0
309.2704322E-3	79.8360553E-3	2.8621462E+0	46.9000015E+0
309.3117430E-3	150.9318965E-3	2.8625276E+0	47.0000000E+0
309.3934598E-3	251.8363443E-3	2.8632822E+0	47.1000023E+0
309.4344690E-3	262.8933664E-3	2.8636608E+0	47.2000008E+0
309.5300564E-3	175.1201118E-3	2.8645435E+0	47.2999992E+0
309.5764431E-3	305.0395977E-3	2.8649718E+0	47.4000015E+0
309.6420434E-3	145.8276687E-3	2.8655775E+0	47.5000000E+0
309.7442519E-3	137.3255176E-3	2.8665213E+0	47.6000023E+0
309.7807612E-3	231.0137198E-3	2.8668584E+0	47.7000008E+0
309.8462112E-3	323.6392177E-3	2.8674627E+0	47.7999992E+0
309.9093998E-3	447.4074424E-3	2.8680462E+0	47.9000015E+0
309.9794341E-3	357.4669965E-3	2.8686928E+0	48.0000000E+0
310.0720256E-3	261.3972167E-3	2.8695478E+0	48.1000023E+0
310.0991713E-3	432.3383201E-3	2.8697984E+0	48.2000008E+0
310.1468451E-3	536.6743131E-3	2.8702386E+0	48.2999992E+0
310.2218179E-3	484.2272972E-3	2.8709309E+0	48.4000015E+0
310.3004765E-3	581.0083021E-3	2.8716572E+0	48.5000000E+0
310.3205314E-3	647.4436715E-3	2.8718424E+0	48.6000023E+0
310.3864781E-3	719.1889366E-3	2.8724513E+0	48.7000008E+0
310.4739807E-3	759.7342379E-3	2.8732593E+0	48.7999992E+0
310.5485406E-3	676.9510675E-3	2.8739477E+0	48.9000015E+0
310.6167308E-3	828.9987624E-3	2.8745774E+0	49.0000000E+0
310.6483274E-3	1.0119015E+0	2.8748691E+0	49.1000023E+0
310.7193588E-3	1.1218191E+0	2.8755250E+0	49.2000008E+0
310.7565307E-3	1.3040965E+0	2.8758682E+0	49.2999992E+0
310.8031928E-3	1.4597060E+0	2.8762991E+0	49.4000015E+0
310.8216466E-3	1.7108912E+0	2.8764695E+0	49.5000000E+0
310.8091056E-3	2.2945175E+0	2.8763537E+0	49.6000023E+0
310.8252952E-3	2.7662645E+0	2.8765032E+0	49.7000008E+0
310.7687085E-3	3.5871577E+0	2.8759807E+0	49.7999992E+0
310.8257879E-3	3.9133051E+0	2.8765077E+0	49.9000015E+0
310.9679749E-3	3.2113457E+0	2.8778206E+0	50.0000000E+0
311.2015359E-3	1.9121982E+0	2.8799772E+0	50.1000023E+0
311.3963307E-3	956.5293570E-3	2.8817759E+0	50.2000008E+0
311.5066457E-3	655.0714489E-3	2.8827945E+0	50.2999992E+0
311.5439729E-3	860.6250057E-3	2.8831392E+0	50.4000015E+0
311.6283918E-3	970.6332881E-3	2.8839187E+0	50.5000000E+0
311.6807046E-3	869.8926432E-3	2.8844017E+0	50.6000023E+0
311.7675252E-3	675.5419552E-3	2.8852034E+0	50.7000008E+0
311.8936331E-3	348.2261772E-3	2.8863678E+0	50.7999992E+0
312.0294147E-3	-201.4619092E-3	2.8876216E+0	50.9000015E+0
312.2530200E-3	-1.3045969E+0	2.8896862E+0	51.0000000E+0
312.4490260E-3	-2.2503166E+0	2.8914961E+0	51.1000023E+0
312.5708759E-3	-2.6510357E+0	2.8926212E+0	51.2000008E+0
312.6292043E-3	-2.5871825E+0	2.8931598E+0	51.2999992E+0
312.6148097E-3	-2.2293840E+0	2.8930269E+0	51.4000015E+0
312.6160415E-3	-1.6830622E+0	2.8930382E+0	51.5000000E+0
312.6678130E-3	-1.4964477E+0	2.8935163E+0	51.6000023E+0
312.7171209E-3	-1.1830259E+0	2.8939716E+0	51.7000008E+0
312.7122953E-3	-893.1332763E-3	2.8939270E+0	51.7999992E+0
312.7796280E-3	-683.6316032E-3	2.8945487E+0	51.9000015E+0
312.8287588E-3	-538.3927538E-3	2.8950024E+0	52.0000000E+0
312.8975294E-3	-495.3308976E-3	2.8956374E+0	52.1000023E+0
312.9646107E-3	-410.7110458E-3	2.8962568E+0	52.2000008E+0
313.0007452E-3	-274.8566340E-3	2.8965904E+0	52.2999992E+0
313.0560116E-3	-213.0427188E-3	2.8971008E+0	52.4000015E+0
313.0897947E-3	-130.1802029E-3	2.8974127E+0	52.5000000E+0
313.1997298E-3	-259.8674658E-3	2.8984278E+0	52.6000023E+0
313.2331401E-3	-16.6147415E-3	2.8987363E+0	52.7000008E+0
313.2778928E-3	70.6718932E-3	2.8991495E+0	52.7999992E+0
313.3653738E-3	45.8213281E-3	2.8999573E+0	52.9000015E+0
313.4108103E-3	135.2960487E-3	2.9003768E+0	53.0000000E+0
313.5142607E-3	74.3732665E-3	2.9013320E+0	53.1000023E+0
313.5630630E-3	110.5173538E-3	2.9017827E+0	53.2000008E+0
313.6583124E-3	24.6392142E-3	2.9026622E+0	53.2999992E+0
313.7032791E-3	111.9781165E-3	2.9030774E+0	53.4000015E+0
313.7834182E-3	140.4672213E-3	2.9038173E+0	53.5000000E+0
313.8421225E-3	113.0014628E-3	2.9043594E+0	53.6000023E+0
313.8983755E-3	209.4398460E-3	2.9048788E+0	53.7000008E+0
313.9675216E-3	149.6144478E-3	2.9055173E+0	53.7999992E+0
314.0482115E-3	211.4655649E-3	2.9062623E+0	53.9000015E+0
314.0802505E-3	276.5435137E-3	2.9065582E+0	54.0000000E+0
314.1482753E-3	319.6205302E-3	2.9071863E+0	54.1000023E+0
314.2215224E-3	414.6754432E-3	2.9078626E+0	54.2000008E+0
314.2865428E-3	657.5698568E-3	2.9084630E+0	54.2999992E+0
314.3243264E-3	665.5727276E-3	2.9088119E+0	54.4000015E+0
314.3820000E-3	617.3238059E-3	2.9093444E+0	54.5000000E+0
314.4756288E-3	470.2971916E-3	2.9102089E+0	54.6000023E+0
314.5718061E-3	404.9249135E-3	2.9110970E+0	54.7000008E+0
314.6362640E-3	418.5129648E-3	2.9116922E+0	54.7999992E+0
314.6869384E-3	603.2675430E-3	2.9121601E+0	54.9000015E+0
314.7380412E-3	527.5932114E-3	2.9126320E+0	55.0000000E+0
314.7836754E-3	633.5893625E-3	2.9130533E+0	55.1000023E+0
314.8571052E-3	628.5522240E-3	2.9137313E+0	55.2000008E+0
314.9088851E-3	799.4107932E-3	2.9142095E+0	55.2999992E+0
314.9591075E-3	920.3392368E-3	2.9146732E+0	55.4000015E+0
315.0498671E-3	910.5333685E-3	2.9155112E+0	55.5000000E+0
315.0918193E-3	1.0092712E+0	2.9158986E+0	55.6000023E+0
315.1501605E-3	1.0743901E+0	2.9164373E+0	55.7000008E+0
315.2393206E-3	878.9376727E-3	2.9172606E+0	55.7999992E+0
315.3421950E-3	755.8264133E-3	2.9182105E+0	55.9000015E+0
315.4427667E-3	537.3079113E-3	2.9191391E+0	56.0000000E+0
315.5514203E-3	-24.0276098E-3	2.9201424E+0	56.1000023E+0
315.6720580E-3	-424.6632445E-3	2.9212563E+0	56.2000008E+0
315.7710436E-3	-482.4606542E-3	2.9221703E+0	56.2999992E+0
315.8193660E-3	-459.4290250E-3	2.9226165E+0	56.4000015E+0
315.8912338E-3	-347.4832572E-3	2.9232801E+0	56.5000000E+0
315.9318637E-3	-211.5194990E-3	2.9236553E+0	56.6000023E+0
315.9756784E-3	-51.7979318E-3	2.9240598E+0	56.7000008E+0
316.0401709E-3	27.7574269E-3	2.9246553E+0	56.7999992E+0
316.1205631E-3	43.1285851E-3	2.9253976E+0	56.9000015E+0
316.1967246E-3	-29.8832263E-3	2.9261009E+0	57.0000000E+0
316.2457158E-3	19.2737942E-3	2.9265532E+0	57.1000023E+0
316.3480170E-3	37.8466837E-3	2.9274978E+0	57.2000008E+0
316.3956417E-3	105.2982603E-3	2.9279376E+0	57.2999992E+0
316.4462205E-3	199.4750392E-3	2.9284046E+0	57.4000015E+0
316.4716334E-3	403.4077032E-3	2.9286393E+0	57.5000000E+0
316.5517345E-3	335.6863664E-3	2.9293789E+0	57.6000023E+0
316.6395807E-3	299.8230988E-3	2.9301900E+0	57.7000008E+0
316.6771989E-3	367.9675376E-3	2.9305374E+0	57.7999992E+0
316.7732796E-3	326.8295180E-3	2.9314246E+0	57.9000015E+0
316.8270986E-3	350.9133956E-3	2.9319215E+0	58.0000000E+0
316.8933631E-3	431.2714116E-3	2.9325334E+0	58.1000023E+0
316.9195201E-3	583.4765647E-3	2.9327749E+0	58.2000008E+0
316.9859327E-3	637.2911271E-3	2.9333881E+0	58.2999992E+0
317.0290675E-3	768.7506077E-3	2.9337864E+0	58.4000015E+0
317.0837038E-3	782.6404267E-3	2.9342909E+0	58.5000000E+0
317.1651952E-3	878.9745371E-3	2.9350434E+0	58.6000023E+0
317.2143221E-3	875.8209226E-3	2.9354970E+0	58.7000008E+0
317.2823270E-3	885.5713258E-3	2.9361249E+0	58.7999992E+0
317.3530496E-3	824.7354152E-3	2.9367779E+0	58.9000015E+0
317.4408913E-3	812.1436547E-3	2.9375890E+0	59.0000000E+0
317.4873038E-3	915.4207760E-3	2.9380176E+0	59.1000023E+0
317.5658373E-3	751.1357240E-3	2.9387427E+0	59.2000008E+0
317.6632207E-3	479.0088484E-3	2.9396419E+0	59.2999992E+0
317.8117081E-3	62.9865083E-3	2.9410130E+0	59.4000015E+0
317.9116312E-3	-278.8585001E-3	2.9419357E+0	59.5000000E+0
317.9877961E-3	-347.4956372E-3	2.9426389E+0	59.6000023E+0
318.0929849E-3	-465.4888341E-3	2.9436102E+0	59.7000008E+0
318.1457771E-3	-475.1457916E-3	2.9440977E+0	59.7999992E+0
318.1951280E-3	-365.8326463E-3	2.9445534E+0	59.9000015E+0
318.2765258E-3	-306.3037233E-3	2.9453049E+0	60.0000000E+0
318.3321486E-3	-127.9424456E-3	2.9458185E+0	60.1000023E+0
318.3855241E-3	-167.7109792E-3	2.9463114E+0	60.2000008E+0
318.4680262E-3	-185.0070160E-3	2.9470732E+0	60.2999992E+0
318.4885040E-3	-56.0908363E-3	2.9472623E+0	60.4000015E+0
318.5524178E-3	163.8408790E-3	2.9478524E+0	60.5000000E+0
318.6198365E-3	202.4857521E-3	2.9484749E+0	60.6000023E+0
318.6759470E-3	102.3172490E-3	2.9489930E+0	60.7000008E+0
318.7579554E-3	115.9749842E-3	2.9497503E+0	60.7999992E+0
318.7936077E-3	221.7858738E-3	2.9500795E+0	60.9000015E+0
318.8697016E-3	361.3693996E-3	2.9507821E+0	61.0000000E+0
318.9220687E-3	407.4320751E-3	2.9512656E+0	61.1000023E+0
319.0150695E-3	323.3531107E-3	2.9521244E+0	61.2000008E+0
319.0981617E-3	191.3503750E-3	2.9528916E+0	61.2999992E+0
319.1551286E-3	247.5567174E-3	2.9534176E+0	61.4000015E+0
319.2265925E-3	203.3099197E-3	2.9540775E+0	61.5000000E+0
319.2825690E-3	271.4209325E-3	2.9545944E+0	61.6000023E+0
319.3484771E-3	367.1986983E-3	2.9552029E+0	61.7000008E+0
319.4435148E-3	402.8359535E-3	2.9560805E+0	61.7999992E+0
319.4996505E-3	260.7708514E-3	2.9565988E+0	61.9000015E+0
319.5389759E-3	342.6303809E-3	2.9569619E+0	62.0000000E+0
319.5898899E-3	406.3911801E-3	2.9574320E+0	62.1000023E+0
319.6380353E-3	531.4741352E-3	2.9578766E+0	62.2000008E+0
319.6983368E-3	702.7276523E-3	2.9584334E+0	62.2999992E+0
319.7091299E-3	951.7174520E-3	2.9585331E+0	62.4000015E+0
319.7626908E-3	1.1603230E+0	2.9590276E+0	62.5000000E+0
319.8303407E-3	1.2725292E+0	2.9596523E+0	62.6000023E+0
319.8936914E-3	1.5033768E+0	2.9602372E+0	62.7000008E+0
319.8603301E-3	2.0861529E+0	2.9599292E+0	62.7999992E+0
319.8769208E-3	2.6388227E+0	2.9600824E+0	62.9000015E+0
319.8073937E-3	3.3098369E+0	2.9594404E+0	63.0000000E+0
319.8662875E-3	3.4195934E+0	2.9599842E+0	63.1000023E+0
320.0862773E-3	2.3667123E+0	2.9620155E+0	63.2000008E+0
320.2847055E-3	1.3661409E+0	2.9638477E+0	63.2999992E+0
320.4519154E-3	626.8287577E-3	2.9653916E+0	63.4000015E+0
320.5477162E-3	476.1330929E-3	2.9662762E+0	63.5000000E+0
320.6238839E-3	565.5566790E-3	2.9669795E+0	63.6000023E+0
320.6481974E-3	717.3116746E-3	2.9672040E+0	63.7000008E+0
320.7524960E-3	543.8485022E-3	2.9681671E+0	63.7999992E+0
320.8088472E-3	437.9214280E-3	2.9686874E+0	63.9000015E+0
320.9233827E-3	238.1625821E-3	2.9697450E+0	64.0000000E+0
321.0157718E-3	-72.1316030E-3	2.9705981E+0	64.0999985E+0
321.1294677E-3	-282.8769967E-3	2.9716479E+0	64.2000046E+0
321.2704061E-3	-632.5961858E-3	2.9729493E+0	64.3000031E+0
321.3818960E-3	-1.1788086E+0	2.9739787E+0	64.4000015E+0
321.5379218E-3	-1.8064001E+0	2.9754194E+0	64.5000000E+0
321.6520233E-3	-1.9930350E+0	2.9764730E+0	64.5999985E+0
321.6953833E-3	-1.8478610E+0	2.9768733E+0	64.7000046E+0
321.7345959E-3	-1.7042379E+0	2.9772354E+0	64.8000031E+0
321.7520178E-3	-1.3439040E+0	2.9773963E+0	64.9000015E+0
321.7994543E-3	-1.0554647E+0	2.9778343E+0	65.0000000E+0
321.8098367E-3	-740.1596657E-3	2.9779302E+0	65.0999985E+0
321.8772205E-3	-687.0578243E-3	2.9785524E+0	65.2000046E+0
321.9284432E-3	-565.4413991E-3	2.9790253E+0	65.3000031E+0
322.0011556E-3	-589.8396050E-3	2.9796967E+0	65.4000015E+0
322.0595351E-3	-450.3236886E-3	2.9802358E+0	65.5000000E+0
322.0945693E-3	-352.6213391E-3	2.9805593E+0	65.5999985E+0
322.1730822E-3	-326.7355524E-3	2.9812842E+0	65.7000046E+0
322.1988241E-3	-78.2550865E-3	2.9815219E+0	65.8000031E+0
322.2656026E-3	-94.8686036E-3	2.9821385E+0	65.9000015E+0
322.3268131E-3	-35.7935469E-3	2.9827037E+0	66.0000000E+0
322.3988479E-3	34.8864605E-3	2.9833689E+0	66.0999985E+0
322.4659733E-3	-4.3912113E-3	2.9839887E+0	66.2000046E+0
322.5566703E-3	-11.3473014E-3	2.9848261E+0	66.3000031E+0
322.6178522E-3	-99.8433521E-3	2.9853911E+0	66.4000015E+0
322.6998075E-3	-53.0133229E-3	2.9861478E+0	66.5000000E+0
322.7537645E-3	20.8871249E-3	2.9866460E+0	66.5999985E+0
322.8089465E-3	72.0497365E-3	2.9871556E+0	66.7000046E+0
322.9062328E-3	-2.4156778E-3	2.9880539E+0	66.8000031E+0
322.9642612E-3	-42.0964372E-3	2.9885897E+0	66.9000015E+0
322.9938276E-3	127.9067410E-3	2.9888627E+0	67.0000000E+0
323.0757935E-3	177.7254364E-3	2.9896195E+0	67.0999985E+0
323.1550935E-3	165.6543840E-3	2.9903517E+0	67.2000046E+0
323.1712066E-3	364.5174997E-3	2.9905005E+0	67.3000031E+0
323.2562657E-3	465.8925267E-3	2.9912859E+0	67.4000015E+0
323.3461811E-3	341.7796685E-3	2.9921162E+0	67.5000000E+0
323.3571407E-3	495.0875856E-3	2.9922174E+0	67.5999985E+0
323.4241124E-3	540.2102476E-3	2.9928358E+0	67.7000046E+0
323.5124051E-3	533.4207912E-3	2.9936510E+0	67.8000031E+0
323.5973971E-3	427.1428981E-3	2.9944358E+0	67.9000015E+0
323.6287428E-3	429.3214893E-3	2.9947252E+0	68.0000000E+0
323.7269676E-3	515.8846866E-3	2.9956322E+0	68.0999985E+0
323.7432845E-3	598.8201723E-3	2.9957829E+0	68.2000046E+0
323.8329039E-3	518.6758970E-3	2.9966104E+0	68.3000031E+0
323.9297309E-3	566.5452324E-3	2.9975044E+0	68.4000015E+0
323.9773556E-3	671.0897872E-3	2.9979442E+0	68.5000000E+0
324.0612829E-3	574.6957398E-3	2.9987191E+0	68.5999985E+0
324.1305513E-3	551.3593769E-3	2.9993587E+0	68.7000046E+0
324.2054760E-3	646.2877354E-3	3.0000506E+0	68.8000031E+0
324.2624915E-3	685.4917461E-3	3.0005770E+0	68.9000015E+0
324.3250332E-3	722.2249563E-3	3.0011545E+0	69.0000000E+0
324.4008423E-3	624.0698436E-3	3.0018545E+0	69.0999985E+0
324.4368041E-3	789.8434772E-3	3.0021866E+0	69.2000046E+0
324.5364523E-3	661.5669257E-3	3.0031067E+0	69.3000031E+0
324.6090195E-3	533.8285070E-3	3.0037767E+0	69.4000015E+0
324.7342426E-3	92.5033389E-3	3.0049330E+0	69.5000000E+0
324.8289545E-3	-262.2446632E-3	3.0058075E+0	69.5999985E+0
324.9334451E-3	-446.7579243E-3	3.0067723E+0	69.7000046E+0
325.0111407E-3	-568.1963310E-3	3.0074898E+0	69.8000031E+0
325.0727109E-3	-515.8141398E-3	3.0080583E+0	69.9000015E+0
325.1432776E-3	-416.7794435E-3	3.0087099E+0	70.0000000E+0
325.2182995E-3	-311.3055014E-3	3.0094026E+0	70.0999985E+0
325.2813808E-3	-160.9732722E-3	3.0099850E+0	70.2000046E+0
325.3234738E-3	-193.1295499E-3	3.0103737E+0	70.3000031E+0
325.3656763E-3	-31.4147355E-3	3.0107634E+0	70.4000015E+0
325.4190277E-3	133.3751214E-3	3.0112560E+0	70.5000000E+0
325.4967394E-3	89.3438853E-3	3.0119736E+0	70.5999985E+0
325.5678821E-3	15.0360788E-3	3.0126305E+0	70.7000046E+0
325.6568037E-3	-10.6525049E-3	3.0134516E+0	70.8000031E+0
325.7261022E-3	-32.3683102E-3	3.0140914E+0	70.9000015E+0
325.7379802E-3	214.3950857E-3	3.0142011E+0	71.0000000E+0
325.7857435E-3	337.0303908E-3	3.0146421E+0	71.0999985E+0
325.8846196E-3	231.5205003E-3	3.0155551E+0	71.2000046E+0
325.9496948E-3	246.6562116E-3	3.0161560E+0	71.3000031E+0
326.0295819E-3	237.9863631E-3	3.0168936E+0	71.4000015E+0
326.0602416E-3	367.4422748E-3	3.0171767E+0	71.5000000E+0
326.1405215E-3	405.0809841E-3	3.0179180E+0	71.5999985E+0
326.2277688E-3	449.6570536E-3	3.0187236E+0	71.7000046E+0
326.2810403E-3	451.2497200E-3	3.0192155E+0	71.8000031E+0
326.3623314E-3	427.9488362E-3	3.0199661E+0	71.9000015E+0
326.4118134E-3	523.7376439E-3	3.0204230E+0	72.0000000E+0
326.4603517E-3	590.0565556E-3	3.0208712E+0	72.0999985E+0
326.5356507E-3	497.1203868E-3	3.0215665E+0	72.2000046E+0
326.5878820E-3	563.6647879E-3	3.0220488E+0	72.3000031E+0
326.6570157E-3	637.9200002E-3	3.0226871E+0	72.4000015E+0
326.6814297E-3	737.8731687E-3	3.0229126E+0	72.5000000E+0
326.7730468E-3	741.2163105E-3	3.0237585E+0	72.5999985E+0
326.8453319E-3	777.8688186E-3	3.0244260E+0	72.7000046E+0
326.9196616E-3	723.3206483E-3	3.0251123E+0	72.8000031E+0
326.9773654E-3	641.6193197E-3	3.0256451E+0	72.9000015E+0
327.0910971E-3	404.6879861E-3	3.0266953E+0	73.0000000E+0
327.2385633E-3	-51.7114730E-3	3.0280569E+0	73.0999985E+0
327.3319703E-3	-510.8848620E-3	3.0289194E+0	73.2000046E+0
327.4176344E-3	-527.2058139E-3	3.0297104E+0	73.3000031E+0
327.4807672E-3	-471.4601004E-3	3.0302933E+0	73.4000015E+0
327.5329326E-3	-357.8775830E-3	3.0307750E+0	73.5000000E+0
327.5837751E-3	-217.2429383E-3	3.0312445E+0	73.5999985E+0
327.6396784E-3	-220.5996878E-3	3.0317606E+0	73.7000046E+0
327.7058675E-3	-272.7103443E-3	3.0323718E+0	73.8000031E+0
327.7555011E-3	-132.7569659E-3	3.0328301E+0	73.9000015E+0
327.8315604E-3	-71.0871333E-3	3.0335324E+0	74.0000000E+0
327.8547538E-3	152.2064485E-3	3.0337466E+0	74.0999985E+0
327.9143771E-3	211.3270843E-3	3.0342971E+0	74.2000046E+0
328.0250614E-3	153.7569043E-3	3.0353191E+0	74.3000031E+0
328.0617696E-3	164.4651560E-3	3.0356581E+0	74.4000015E+0
328.1432181E-3	233.3103234E-3	3.0364101E+0	74.5000000E+0
328.2155730E-3	186.5368141E-3	3.0370782E+0	74.5999985E+0
328.3123917E-3	96.7384132E-3	3.0379722E+0	74.7000046E+0
328.3838354E-3	77.1831759E-3	3.0386319E+0	74.8000031E+0
328.4293088E-3	98.4864538E-3	3.0390518E+0	74.9000015E+0
328.4989313E-3	166.8006070E-3	3.0396947E+0	75.0000000E+0
328.5512939E-3	253.7582155E-3	3.0401782E+0	75.0999985E+0
328.6056347E-3	344.0499233E-3	3.0406799E+0	75.2000046E+0
328.6770504E-3	415.6464279E-3	3.0413393E+0	75.3000031E+0
328.7283589E-3	365.4930747E-3	3.0418131E+0	75.4000015E+0
328.7936453E-3	476.2533337E-3	3.0424159E+0	75.5000000E+0
328.8484436E-3	611.4266907E-3	3.0429219E+0	75.5999985E+0
328.8872799E-3	742.4152632E-3	3.0432805E+0	75.7000046E+0
328.9649153E-3	786.8136546E-3	3.0439974E+0	75.8000031E+0
329.0168456E-3	914.6880760E-3	3.0444769E+0	75.9000015E+0
329.0330554E-3	1.1378373E+0	3.0446265E+0	76.0000000E+0
329.0821370E-3	1.3971282E+0	3.0450798E+0	76.0999985E+0
329.1315259E-3	1.5476200E+0	3.0455358E+0	76.2000046E+0
329.1578058E-3	1.9620118E+0	3.0457784E+0	76.3000031E+0
329.1692111E-3	2.4273830E+0	3.0458838E+0	76.4000015E+0
329.1460992E-3	3.0523821E+0	3.0456704E+0	76.5000000E+0
329.2676460E-3	2.7758235E+0	3.0467927E+0	76.5999985E+0
329.4415111E-3	1.9528771E+0	3.0483981E+0	76.7000046E+0
329.6036512E-3	1.0426995E+0	3.0498952E+0	76.8000031E+0
329.7328536E-3	673.6889786E-3	3.0510882E+0	76.9000015E+0
329.8232690E-3	419.8236974E-3	3.0519231E+0	77.0000000E+0
329.9010935E-3	418.5701570E-3	3.0526417E+0	77.0999985E+0
329.9705240E-3	418.3271874E-3	3.0532828E+0	77.2000046E+0
330.0905735E-3	203.1225587E-3	3.0543913E+0	77.3000031E+0
330.1577949E-3	180.2636099E-3	3.0550120E+0	77.4000015E+0
330.2269885E-3	208.6250357E-3	3.0556509E+0	77.5000000E+0
330.2753154E-3	310.4772911E-3	3.0560971E+0	77.5999985E+0
330.3452430E-3	221.9564857E-3	3.0567428E+0	77.7000046E+0
330.4227268E-3	83.7403773E-3	3.0574582E+0	77.8000031E+0
330.5324089E-3	-121.5118813E-3	3.0584710E+0	77.9000015E+0
330.6118056E-3	-158.3966692E-3	3.0592041E+0	78.0000000E+0
330.7284087E-3	-666.6083958E-3	3.0602808E+0	78.0999985E+0
330.8651690E-3	-1.2413618E+0	3.0615436E+0	78.2000046E+0
330.9846972E-3	-1.5798418E+0	3.0626473E+0	78.3000031E+0
331.0654352E-3	-1.6520560E+0	3.0633928E+0	78.4000015E+0
331.1160386E-3	-1.5267777E+0	3.0638600E+0	78.5000000E+0
331.1442704E-3	-1.2594636E+0	3.0641207E+0	78.5999985E+0
331.1947045E-3	-1.0412337E+0	3.0645864E+0	78.7000046E+0
331.2041876E-3	-745.9952162E-3	3.0646739E+0	78.8000031E+0
331.2731537E-3	-587.8757242E-3	3.0653107E+0	78.9000015E+0
331.2777547E-3	-569.5881732E-3	3.0653532E+0	79.0000000E+0
331.3744443E-3	-519.8613786E-3	3.0662460E+0	79.0999985E+0
331.4858359E-3	-512.9780828E-3	3.0672746E+0	79.2000046E+0
331.5497870E-3	-357.6984289E-3	3.0678651E+0	79.3000031E+0
331.5706726E-3	-208.0453304E-3	3.0680579E+0	79.4000015E+0
331.6684265E-3	-264.1320407E-3	3.0689605E+0	79.5000000E+0
331.7182226E-3	-153.7167917E-3	3.0694203E+0	79.5999985E+0
331.7796420E-3	9.1612217E-3	3.0699875E+0	79.7000046E+0
331.8320370E-3	72.0529965E-3	3.0704713E+0	79.8000031E+0
331.9279881E-3	-18.2968921E-3	3.0713572E+0	79.9000015E+0
331.9938571E-3	51.4408115E-3	3.0719654E+0	80.0000000E+0
332.0582440E-3	-27.9691234E-3	3.0725600E+0	80.0999985E+0
332.1316955E-3	38.5597614E-3	3.0732382E+0	80.2000046E+0
332.1869882E-3	27.4321733E-3	3.0737487E+0	80.3000031E+0
332.2537667E-3	119.0455803E-3	3.0743653E+0	80.4000015E+0
332.3342064E-3	137.9686432E-3	3.0751081E+0	80.5000000E+0
332.3905795E-3	89.7263861E-3	3.0756286E+0	80.5999985E+0
332.4490822E-3	135.9859706E-3	3.0761688E+0	80.7000046E+0
332.5153188E-3	108.0647674E-3	3.0767804E+0	80.8000031E+0
332.5740818E-3	222.6540316E-3	3.0773230E+0	80.9000015E+0
332.6098956E-3	323.8475473E-3	3.0776537E+0	81.0000000E+0
332.6921022E-3	311.5390980E-3	3.0784128E+0	81.0999985E+0
332.7511943E-3	381.6027360E-3	3.0789584E+0	81.2000046E+0
332.7913911E-3	403.0923689E-3	3.0793296E+0	81.3000031E+0
332.8952466E-3	336.2144508E-3	3.0802885E+0	81.4000015E+0
332.9463494E-3	405.4770254E-3	3.0807604E+0	81.5000000E+0
333.0223082E-3	408.3338395E-3	3.0814618E+0	81.5999985E+0
333.0527433E-3	524.6391885E-3	3.0817428E+0	81.7000046E+0
333.1187687E-3	677.1977338E-3	3.0823524E+0	81.8000031E+0
333.1984330E-3	455.8992149E-3	3.0830880E+0	81.9000015E+0
333.2733443E-3	413.4476876E-3	3.0837797E+0	82.0000000E+0
333.3395753E-3	529.0655958E-3	3.0843913E+0	82.0999985E+0
333.4224596E-3	418.7726560E-3	3.0851566E+0	82.2000046E+0
333.4958457E-3	551.4034807E-3	3.0858342E+0	82.3000031E+0
333.5307590E-3	547.8466291E-3	3.0861566E+0	82.4000015E+0
333.6271938E-3	479.9414339E-3	3.0870470E+0	82.5000000E+0
333.7035319E-3	599.1467051E-3	3.0877519E+0	82.5999985E+0
333.7577302E-3	648.7195234E-3	3.0882524E+0	82.7000046E+0
333.8146100E-3	739.8174323E-3	3.0887776E+0	82.8000031E+0
333.8949547E-3	707.7427853E-3	3.0895194E+0	82.9000015E+0
333.9553713E-3	695.6801719E-3	3.0900773E+0	83.0000000E+0
334.0596608E-3	489.3498010E-3	3.0910403E+0	83.0999985E+0
334.1243896E-3	468.9231973E-3	3.0916379E+0	83.2000046E+0
334.1830347E-3	341.8570642E-3	3.0921795E+0	83.3000031E+0
334.3205654E-3	41.4357903E-3	3.0934494E+0	83.4000015E+0
334.4209057E-3	-227.2347026E-3	3.0943759E+0	83.5000000E+0
334.5008560E-3	-393.1638600E-3	3.0951141E+0	83.5999985E+0
334.5789303E-3	-372.1186380E-3	3.0958350E+0	83.7000046E+0
334.6147396E-3	-259.4008533E-3	3.0961656E+0	83.8000031E+0
334.6726166E-3	-226.3107007E-3	3.0967001E+0	83.9000015E+0
334.7079637E-3	-74.0787840E-3	3.0970264E+0	84.0000000E+0
334.7758324E-3	40.1103461E-3	3.0976531E+0	84.0999985E+0
334.8255352E-3	23.1440712E-3	3.0981121E+0	84.2000046E+0
334.9213053E-3	56.6319469E-3	3.0989964E+0	84.3000031E+0
334.9967417E-3	80.5003145E-3	3.0996929E+0	84.4000015E+0
335.0417419E-3	173.8946310E-3	3.1001084E+0	84.5000000E+0
335.1128767E-3	235.0792295E-3	3.1007653E+0	84.5999985E+0
335.1528166E-3	325.9091681E-3	3.1011340E+0	84.7000046E+0
335.2376361E-3	250.5065156E-3	3.1019172E+0	84.8000031E+0
335.3034794E-3	234.8131420E-3	3.1025252E+0	84.9000015E+0
335.3791594E-3	139.3568178E-3	3.1032240E+0	85.0000000E+0
335.4382816E-3	183.1752674E-3	3.1037699E+0	85.0999985E+0
335.4885398E-3	361.5404036E-3	3.1042340E+0	85.2000046E+0
335.5574316E-3	262.2054407E-3	3.1048701E+0	85.3000031E+0
335.6122847E-3	326.1483497E-3	3.1053766E+0	85.4000015E+0
335.6916104E-3	288.6469643E-3	3.1061091E+0	85.5000000E+0
335.7457739E-3	354.6472200E-3	3.1066092E+0	85.5999985E+0
335.8307108E-3	394.3872737E-3	3.1073935E+0	85.7000046E+0
335.8807254E-3	453.7663575E-3	3.1078553E+0	85.8000031E+0
335.9553635E-3	511.8975681E-3	3.1085444E+0	85.9000015E+0
336.0175527E-3	456.3226161E-3	3.1091187E+0	86.0000000E+0
336.0840742E-3	429.5453610E-3	3.1097329E+0	86.0999985E+0
336.1332380E-3	566.2041427E-3	3.1101869E+0	86.2000046E+0
336.1882944E-3	607.0701634E-3	3.1106952E+0	86.3000031E+0
336.2668023E-3	659.8242446E-3	3.1114202E+0	86.4000015E+0
336.3103868E-3	747.8106106E-3	3.1118226E+0	86.5000000E+0
336.3937560E-3	651.5873660E-3	3.1125924E+0	86.5999985E+0
336.4900428E-3	666.0686395E-3	3.1134815E+0	86.7000046E+0
336.5456858E-3	646.6946041E-3	3.1139953E+0	86.8000031E+0
336.6114924E-3	636.7287680E-3	3.1146029E+0	86.9000015E+0
336.6810265E-3	487.0862905E-3	3.1152449E+0	87.0000000E+0
336.7805379E-3	204.5159484E-3	3.1161638E+0	87.0999985E+0
336.8895378E-3	9.6992978E-3	3.1171702E+0	87.2000046E+0
336.9573241E-3	-122.3155445E-3	3.1177962E+0	87.3000031E+0
337.0162369E-3	-87.0030322E-3	3.1183401E+0	87.4000015E+0
337.1139058E-3	-257.0635092E-3	3.1192420E+0	87.5000000E+0
337.1850344E-3	-327.1160981E-3	3.1198987E+0	87.5999985E+0
337.2283486E-3	-132.4931171E-3	3.1202987E+0	87.7000046E+0
337.3021582E-3	-15.5016169E-3	3.1209802E+0	87.8000031E+0
337.3339084E-3	187.4499888E-3	3.1212734E+0	87.9000015E+0
337.4093571E-3	121.4889797E-3	3.1219701E+0	88.0000000E+0
337.4680006E-3	189.8063826E-3	3.1225115E+0	88.0999985E+0
337.5445074E-3	152.4334822E-3	3.1232180E+0	88.2000046E+0
337.6228577E-3	162.4662347E-3	3.1239414E+0	88.3000031E+0
337.6963869E-3	165.4887189E-3	3.1246204E+0	88.4000015E+0
337.7441741E-3	164.1827527E-3	3.1250616E+0	88.5000000E+0
337.8222714E-3	172.5495594E-3	3.1257827E+0	88.5999985E+0
337.8810322E-3	149.6725048E-3	3.1263253E+0	88.7000046E+0
337.9517530E-3	119.0732960E-3	3.1269783E+0	88.8000031E+0
337.9994185E-3	335.2410165E-3	3.1274185E+0	88.9000015E+0
338.0695913E-3	347.8242038E-3	3.1280664E+0	89.0000000E+0
338.1564811E-3	396.1531673E-3	3.1288687E+0	89.0999985E+0
338.2307422E-3	431.2888159E-3	3.1295544E+0	89.2000046E+0
338.2465474E-3	439.8421789E-3	3.1297003E+0	89.3000031E+0
338.3259681E-3	446.1758284E-3	3.1304337E+0	89.4000015E+0
338.3972135E-3	486.4461750E-3	3.1310915E+0	89.5000000E+0
338.4586592E-3	530.1897514E-3	3.1316589E+0	89.5999985E+0
338.4975891E-3	746.9376968E-3	3.1320184E+0	89.7000046E+0
338.4964818E-3	1.0521367E+0	3.1320081E+0	89.8000031E+0
338.5710188E-3	1.2882167E+0	3.1326964E+0	89.9000015E+0
338.5893783E-3	1.5834903E+0	3.1328659E+0	90.0000000E+0
338.6098806E-3	1.9608014E+0	3.1330552E+0	90.0999985E+0
338.6156302E-3	2.4772529E+0	3.1331083E+0	90.2000046E+0
338.6347080E-3	2.8966913E+0	3.1332845E+0	90.3000031E+0
338.7346746E-3	2.5785718E+0	3.1342075E+0	90.4000015E+0
338.9243964E-3	1.7018677E+0	3.1359593E+0	90.5000000E+0
339.1107193E-3	764.9729331E-3	3.1376798E+0	90.5999985E+0
339.2561218E-3	237.8095045E-3	3.1390224E+0	90.7000046E+0
339.3237725E-3	138.7275025E-3	3.1396470E+0	90.8000031E+0
339.3799460E-3	207.0597703E-3	3.1401657E+0	90.9000015E+0
339.4484910E-3	338.3493148E-3	3.1407986E+0	91.0000000E+0
339.5032099E-3	334.6630201E-3	3.1413039E+0	91.0999985E+0
339.6011671E-3	304.9179178E-3	3.1422084E+0	91.2000046E+0
339.6847799E-3	95.4112153E-3	3.1429804E+0	91.3000031E+0
339.7806153E-3	41.6801715E-3	3.1438653E+0	91.4000015E+0
339.8179894E-3	152.3723972E-3	3.1442104E+0	91.5000000E+0
339.8890505E-3	191.2752696E-3	3.1448666E+0	91.5999985E+0
339.9741291E-3	189.8900920E-3	3.1456522E+0	91.7000046E+0
340.0184969E-3	224.2072626E-3	3.1460618E+0	91.8000031E+0
340.0978722E-3	196.5773589E-3	3.1467948E+0	91.9000015E+0
340.1980342E-3	57.5391546E-3	3.1477196E+0	92.0000000E+0
340.2996050E-3	-194.0159321E-3	3.1486575E+0	92.0999985E+0
340.3521827E-3	-556.3627940E-3	3.1491430E+0	92.2000046E+0
340.5464892E-3	-1.0605964E+0	3.1509371E+0	92.3000031E+0
340.6422950E-3	-1.4539625E+0	3.1518217E+0	92.4000015E+0
340.7317546E-3	-1.5162741E+0	3.1526478E+0	92.5000000E+0
340.7930991E-3	-1.5501709E+0	3.1532142E+0	92.5999985E+0
340.8525364E-3	-1.5065996E+0	3.1537630E+0	92.7000046E+0
340.8594413E-3	-1.0721970E+0	3.1538268E+0	92.8000031E+0
340.9377414E-3	-1.0116302E+0	3.1545498E+0	92.9000015E+0
341.0215133E-3	-975.2465907E-3	3.1553233E+0	93.0000000E+0
341.0634706E-3	-831.3987427E-3	3.1557107E+0	93.0999985E+0
341.1001503E-3	-530.6923883E-3	3.1560494E+0	93.2000046E+0
341.1526843E-3	-502.7569687E-3	3.1565345E+0	93.3000031E+0
341.2230387E-3	-524.9537371E-3	3.1571841E+0	93.4000015E+0
341.2811934E-3	-519.4754579E-3	3.1577211E+0	93.5000000E+0
341.3361610E-3	-369.1776090E-3	3.1582286E+0	93.5999985E+0
341.4000334E-3	-355.7197489E-3	3.1588184E+0	93.7000046E+0
341.4765468E-3	-316.5124884E-3	3.1595249E+0	93.8000031E+0
341.5246855E-3	-253.5414919E-3	3.1599694E+0	93.9000015E+0
341.5975817E-3	-260.1043004E-3	3.1606425E+0	94.0000000E+0
341.6580693E-3	-256.0149541E-3	3.1612010E+0	94.0999985E+0
341.7330465E-3	-187.6163487E-3	3.1618933E+0	94.2000046E+0
341.7871236E-3	-113.8519623E-3	3.1623926E+0	94.3000031E+0
341.8528848E-3	-116.6577295E-3	3.1629999E+0	94.4000015E+0
341.9200917E-3	-67.1126734E-3	3.1636204E+0	94.5000000E+0
341.9781430E-3	-40.8946796E-3	3.1641564E+0	94.5999985E+0
342.0566621E-3	-43.6953762E-3	3.1648815E+0	94.7000046E+0
342.1245886E-3	-84.1469041E-3	3.1655087E+0	94.8000031E+0
342.2020993E-3	-34.7849637E-3	3.1662244E+0	94.9000015E+0
342.2519585E-3	-1.4472626E-3	3.1666848E+0	95.0000000E+0
342.3258542E-3	2.5961694E-3	3.1673671E+0	95.0999985E+0
342.3870563E-3	183.1166945E-3	3.1679322E+0	95.2000046E+0
342.4213921E-3	204.1987375E-3	3.1682492E+0	95.3000031E+0
342.5188814E-3	243.4280439E-3	3.1691494E+0	95.4000015E+0
342.5723597E-3	170.2594244E-3	3.1696432E+0	95.5000000E+0
342.6435358E-3	168.7973979E-3	3.1703004E+0	95.5999985E+0
342.7377473E-3	143.5310651E-3	3.1711703E+0	95.7000046E+0
342.8143362E-3	20.9149180E-3	3.1718775E+0	95.8000031E+0
342.8630262E-3	111.6229549E-3	3.1723271E+0	95.9000015E+0
342.9262556E-3	116.6886293E-3	3.1729109E+0	96.0000000E+0
343.0133471E-3	34.6174947E-3	3.1737151E+0	96.0999985E+0
343.0773117E-3	63.7560491E-3	3.1743057E+0	96.2000046E+0
343.1288586E-3	179.8308980E-3	3.1747817E+0	96.3000031E+0
343.1729504E-3	274.1940888E-3	3.1751888E+0	96.4000015E+0
343.2540599E-3	309.9561447E-3	3.1759378E+0	96.5000000E+0
343.3103520E-3	386.7932266E-3	3.1764575E+0	96.5999985E+0
343.3942056E-3	305.3960953E-3	3.1772318E+0	96.7000046E+0
343.4406979E-3	318.0431479E-3	3.1776611E+0	96.8000031E+0
343.5384311E-3	330.6455706E-3	3.1785635E+0	96.9000015E+0
343.5874954E-3	357.2474836E-3	3.1790166E+0	97.0000000E+0
343.6521762E-3	314.5760617E-3	3.1796138E+0	97.0999985E+0
343.7214116E-3	367.9190131E-3	3.1802531E+0	97.2000046E+0
343.7878113E-3	401.3381695E-3	3.1808662E+0	97.3000031E+0
343.8799435E-3	344.2892700E-3	3.1817169E+0	97.4000015E+0
343.9653467E-3	189.0563402E-3	3.1825055E+0	97.5000000E+0
344.0685026E-3	-30.4821501E-3	3.1834580E+0	97.5999985E+0
344.1630711E-3	-218.7161326E-3	3.1843312E+0	97.7000046E+0
344.2059735E-3	-157.2120114E-3	3.1847274E+0	97.8000031E+0
344.2957850E-3	-242.4563259E-3	3.1855566E+0	97.9000015E+0
344.3572407E-3	-231.2601681E-3	3.1861241E+0	98.0000000E+0
344.3986890E-3	-224.3681341E-3	3.1865068E+0	98.0999985E+0
344.4547303E-3	-177.8549556E-3	3.1870243E+0	98.2000046E+0
344.5223747E-3	-125.0138120E-3	3.1876489E+0	98.3000031E+0
344.5997865E-3	-81.1894045E-3	3.1883637E+0	98.4000015E+0
344.6673069E-3	-170.8265147E-3	3.1889871E+0	98.5000000E+0
344.7371333E-3	-184.0555975E-3	3.1896319E+0	98.5999985E+0
344.8266186E-3	-12.1761631E-3	3.1904582E+0	98.7000046E+0
344.8733774E-3	27.4260968E-3	3.1908899E+0	98.8000031E+0
344.9200055E-3	-135.5189543E-3	3.1913205E+0	98.9000015E+0
344.9593790E-3	88.3089586E-3	3.1916840E+0	99.0000000E+0
345.0370945E-3	127.5256244E-3	3.1924016E+0	99.0999985E+0
345.1152070E-3	68.2279890E-3	3.1931229E+0	99.2000046E+0
345.1846525E-3	49.1282171E-3	3.1937641E+0	99.3000031E+0
345.2344710E-3	36.4237006E-3	3.1942241E+0	99.4000015E+0
345.2886648E-3	97.3201134E-3	3.1947245E+0	99.5000000E+0
345.3688129E-3	112.8433754E-3	3.1954646E+0	99.5999985E+0
345.4170264E-3	147.4933359E-3	3.1959098E+0	99.7000046E+0
345.5013179E-3	163.5064797E-3	3.1966881E+0	99.8000031E+0
345.5955411E-3	165.8130131E-3	3.1975581E+0	99.9000015E+0
345.6145747E-3	308.0803889E-3	3.1977338E+0	100.0000000E+0
345.6873615E-3	219.1306113E-3	3.1984059E+0	100.0999985E+0
345.7578528E-3	250.1808906E-3	3.1990568E+0	100.2000046E+0
345.8456140E-3	168.0072753E-3	3.1998672E+0	100.3000031E+0
345.9191505E-3	101.6653594E-3	3.2005462E+0	100.4000015E+0
345.9639535E-3	275.8045205E-3	3.2009599E+0	100.5000000E+0
346.0054945E-3	467.1410911E-3	3.2013434E+0	100.5999985E+0
346.0816594E-3	387.3954415E-3	3.2020467E+0	100.7000046E+0
346.1853600E-3	377.3461617E-3	3.2030042E+0	100.8000031E+0
346.2262603E-3	437.2066109E-3	3.2033819E+0	100.9000015E+0
346.2601394E-3	497.5933957E-3	3.2036947E+0	101.0000000E+0
346.3394011E-3	420.4533817E-3	3.2044266E+0	101.0999985E+0
346.4008704E-3	382.2532040E-3	3.2049942E+0	101.2000046E+0
346.4839565E-3	351.2744429E-3	3.2057614E+0	101.3000031E+0
346.5181659E-3	380.3808300E-3	3.2060772E+0	101.4000015E+0
346.6203900E-3	438.3304054E-3	3.2070211E+0	101.5000000E+0
346.7306369E-3	141.1092017E-3	3.2080391E+0	101.5999985E+0
346.8199981E-3	-114.6946792E-3	3.2088642E+0	101.7000046E+0
346.9212519E-3	-276.4775165E-3	3.2097992E+0	101.8000031E+0
346.9996212E-3	-284.7741493E-3	3.2105228E+0	101.9000015E+0
347.0591451E-3	-242.0948351E-3	3.2110724E+0	102.0000000E+0
347.1132970E-3	-135.1709422E-3	3.2115725E+0	102.0999985E+0
347.1601251E-3	13.3378522E-3	3.2120048E+0	102.2000046E+0
347.2179792E-3	13.1324164E-3	3.2125391E+0	102.3000031E+0
347.3053326E-3	9.7390273E-3	3.2133456E+0	102.4000015E+0
347.3605991E-3	51.7302456E-3	3.2138559E+0	102.5000000E+0
347.4451968E-3	-25.3348760E-3	3.2146371E+0	102.5999985E+0
347.5145221E-3	-33.6211508E-3	3.2152772E+0	102.7000046E+0
347.5681674E-3	95.2100557E-3	3.2157726E+0	102.8000031E+0
347.6144474E-3	222.8663899E-3	3.2161999E+0	102.9000015E+0
347.6857979E-3	304.4711339E-3	3.2168587E+0	103.0000000E+0
347.7576913E-3	312.1536257E-3	3.2175225E+0	103.0999985E+0
347.7922001E-3	319.8962122E-3	3.2178412E+0	103.2000046E+0
347.8757347E-3	285.3857588E-3	3.2186125E+0	103.3000031E+0
347.9284917E-3	220.7888504E-3	3.2190996E+0	103.4000015E+0
348.0097213E-3	241.7780117E-3	3.2198497E+0	103.5000000E+0
348.0588292E-3	323.6300719E-3	3.2203031E+0	103.5999985E+0
348.0701552E-3	570.6903763E-3	3.2204077E+0	103.7000046E+0
348.1360331E-3	755.7017674E-3	3.2210160E+0	103.8000031E+0
348.1968139E-3	857.3461144E-3	3.2215772E+0	103.9000015E+0
348.2334744E-3	1.1289538E+0	3.2219157E+0	104.0000000E+0
348.3201393E-3	1.1752707E+0	3.2227160E+0	104.0999985E+0
348.3415730E-3	1.2979221E+0	3.2229139E+0	104.2000046E+0
348.3661211E-3	1.7119818E+0	3.2231405E+0	104.3000031E+0
348.3772739E-3	2.2395488E+0	3.2232435E+0	104.4000015E+0
348.4121737E-3	2.5469158E+0	3.2235658E+0	104.5000000E+0
348.5418665E-3	1.9986895E+0	3.2247633E+0	104.5999985E+0
348.6985588E-3	1.0873824E+0	3.2262101E+0	104.7000046E+0
348.8561561E-3	486.3499824E-3	3.2276653E+0	104.8000031E+0
348.9554551E-3	265.0396561E-3	3.2285822E+0	104.9000015E+0
349.0364344E-3	193.3300402E-3	3.2293300E+0	105.0000000E+0
349.1006947E-3	275.1473784E-3	3.2299233E+0	105.0999985E+0
349.1668395E-3	446.7073637E-3	3.2305341E+0	105.2000046E+0
349.1763991E-3	459.9967062E-3	3.2306223E+0	105.3000031E+0
349.2963373E-3	343.3310786E-3	3.2317298E+0	105.4000015E+0
349.3601092E-3	231.1672319E-3	3.2323186E+0	105.5000000E+0
349.4499626E-3	289.8119185E-3	3.2331483E+0	105.5999985E+0
349.4828943E-3	249.6558341E-3	3.2334524E+0	105.7000046E+0
349.5563213E-3	110.8576027E-3	3.2341304E+0	105.8000031E+0
349.6417703E-3	148.1002860E-3	3.2349194E+0	105.9000015E+0
349.6899911E-3	316.7481225E-3	3.2353646E+0	106.0000000E+0
349.7509837E-3	376.9039223E-3	3.2359278E+0	106.0999985E+0
349.8355249E-3	355.7067255E-3	3.2367084E+0	106.2000046E+0
349.8677712E-3	513.0037625E-3	3.2370062E+0	106.3000031E+0
349.9667959E-3	539.3409859E-3	3.2379206E+0	106.4000015E+0
350.0623872E-3	360.4982087E-3	3.2388032E+0	106.5000000E+0
350.1349589E-3	249.1614440E-3	3.2394733E+0	106.5999985E+0
350.2787983E-3	-41.1723424E-3	3.2408015E+0	106.7000046E+0
350.3934295E-3	-647.4481939E-3	3.2418599E+0	106.8000031E+0
350.5634382E-3	-1.2917624E+0	3.2434297E+0	106.9000015E+0
350.6917757E-3	-1.8200585E+0	3.2446147E+0	107.0000000E+0
350.7693501E-3	-1.9316621E+0	3.2453310E+0	107.0999985E+0
350.8477591E-3	-1.9020997E+0	3.2460550E+0	107.2000046E+0
350.9136443E-3	-1.7962882E+0	3.2466634E+0	107.3000031E+0
350.9245189E-3	-1.4752086E+0	3.2467638E+0	107.4000015E+0
350.9444704E-3	-1.1168009E+0	3.2469480E+0	107.5000000E+0
350.9877288E-3	-978.8856609E-3	3.2473474E+0	107.5999985E+0
351.0698879E-3	-947.7995415E-3	3.2481061E+0	107.7000046E+0
351.1451199E-3	-857.6475575E-3	3.2488007E+0	107.8000031E+0
351.1830789E-3	-740.2020569E-3	3.2491512E+0	107.9000015E+0
351.2560539E-3	-711.2921352E-3	3.2498251E+0	108.0000000E+0
351.3057601E-3	-599.6004101E-3	3.2502840E+0	108.0999985E+0
351.3394303E-3	-452.1161123E-3	3.2505949E+0	108.2000046E+0
351.4055122E-3	-453.9929926E-3	3.2512051E+0	108.3000031E+0
351.4754230E-3	-384.7660156E-3	3.2518506E+0	108.4000015E+0
351.5122720E-3	-409.0689470E-3	3.2521909E+0	108.5000000E+0
351.5928245E-3	-327.7380023E-3	3.2529347E+0	108.5999985E+0
351.6419648E-3	-289.9126336E-3	3.2533884E+0	108.7000046E+0
351.7238184E-3	-322.7453441E-3	3.2541442E+0	108.8000031E+0
351.7620142E-3	-154.8796658E-3	3.2544969E+0	108.9000015E+0
351.8569944E-3	-189.6075790E-3	3.2553739E+0	109.0000000E+0
351.9269594E-3	-268.1289703E-3	3.2560199E+0	109.0999985E+0
351.9507991E-3	-216.0727858E-3	3.2562401E+0	109.2000046E+0
352.0497791E-3	-252.6229784E-3	3.2571540E+0	109.3000031E+0
352.1221977E-3	-209.3497027E-3	3.2578227E+0	109.4000015E+0
352.1883288E-3	-176.7147369E-3	3.2584333E+0	109.5000000E+0
352.2457505E-3	-159.7306245E-3	3.2589635E+0	109.5999985E+0
352.2903272E-3	-93.2093947E-3	3.2593751E+0	109.7000046E+0
352.3833079E-3	5.4399329E-3	3.2602337E+0	109.8000031E+0
352.4399363E-3	9.6083874E-3	3.2607566E+0	109.9000015E+0
352.5060411E-3	-6.7639054E-3	3.2613670E+0	110.0000000E+0
352.5808915E-3	-92.9202546E-3	3.2620581E+0	110.0999985E+0
352.6714980E-3	-35.3193774E-3	3.2628947E+0	110.2000046E+0
352.7083855E-3	38.7674359E-3	3.2632353E+0	110.3000031E+0
352.7864291E-3	-17.7827816E-3	3.2639559E+0	110.4000015E+0
352.8584985E-3	-21.3005330E-3	3.2646214E+0	110.5000000E+0
352.9309389E-3	-31.4135336E-3	3.2652903E+0	110.5999985E+0
352.9820418E-3	-7.0852541E-3	3.2657622E+0	110.7000046E+0
353.0365283E-3	89.9995095E-3	3.2662653E+0	110.8000031E+0
353.1095067E-3	-50.4738908E-3	3.2669391E+0	110.9000015E+0
353.1762466E-3	-56.8837753E-3	3.2675554E+0	111.0000000E+0
353.2267500E-3	36.4020717E-3	3.2680217E+0	111.0999985E+0
353.3255429E-3	6.3755359E-3	3.2689339E+0	111.2000046E+0
353.3677884E-3	176.2991624E-3	3.2693240E+0	111.3000031E+0
353.3961789E-3	274.8906907E-3	3.2695861E+0	111.4000015E+0
353.4687528E-3	271.2188342E-3	3.2702563E+0	111.5000000E+0
353.5427300E-3	301.2949106E-3	3.2709393E+0	111.5999985E+0
353.6143978E-3	189.7864714E-3	3.2716011E+0	111.7000046E+0
353.7087087E-3	138.0297385E-3	3.2724719E+0	111.8000031E+0
353.8032419E-3	-19.8223248E-3	3.2733448E+0	111.9000015E+0
353.8671031E-3	-17.6293573E-3	3.2739345E+0	112.0000000E+0
353.9116770E-3	63.4703961E-3	3.2743460E+0	112.0999985E+0
353.9912737E-3	48.1361457E-3	3.2750810E+0	112.2000046E+0
354.0346382E-3	119.4383151E-3	3.2754814E+0	112.3000031E+0
354.1142583E-3	-22.2411139E-3	3.2762166E+0	112.4000015E+0
354.2051865E-3	-53.2460617E-3	3.2770562E+0	112.5000000E+0
354.2555302E-3	-47.0705048E-3	3.2775211E+0	112.5999985E+0
354.3074324E-3	125.2385105E-3	3.2780003E+0	112.7000046E+0
354.3655843E-3	206.6105156E-3	3.2785373E+0	112.8000031E+0
354.4324689E-3	30.8500542E-3	3.2791548E+0	112.9000015E+0
354.4985854E-3	30.8273059E-3	3.2797653E+0	113.0000000E+0
354.5775598E-3	107.2507411E-3	3.2804945E+0	113.0999985E+0
354.6340502E-3	117.4958673E-3	3.2810162E+0	113.2000046E+0
354.7115670E-3	152.0714498E-3	3.2817319E+0	113.3000031E+0
354.7991842E-3	22.2421160E-3	3.2825409E+0	113.4000015E+0
354.8732692E-3	-28.8251076E-3	3.2832250E+0	113.5000000E+0
354.9385377E-3	-30.9701903E-3	3.2838277E+0	113.5999985E+0
354.9739263E-3	208.8551180E-3	3.2841544E+0	113.7000046E+0
355.0383590E-3	212.4106232E-3	3.2847494E+0	113.8000031E+0
355.1253650E-3	95.4066502E-3	3.2855528E+0	113.9000015E+0
355.1993138E-3	152.0790583E-3	3.2862356E+0	114.0000000E+0
355.2434743E-3	214.6685290E-3	3.2866433E+0	114.0999985E+0
355.3313294E-3	57.3719150E-3	3.2874546E+0	114.2000046E+0
355.4189064E-3	1.8308480E-3	3.2882632E+0	114.3000031E+0
355.5117380E-3	-61.0171325E-3	3.2891204E+0	114.4000015E+0
355.5298985E-3	109.0825891E-3	3.2892881E+0	114.5000000E+0
355.6128342E-3	158.1607593E-3	3.2900539E+0	114.5999985E+0
355.6931208E-3	11.9933429E-3	3.2907952E+0	114.7000046E+0
355.7432739E-3	-23.5661144E-3	3.2912583E+0	114.8000031E+0
355.8145892E-3	29.1962563E-3	3.2919168E+0	114.9000015E+0
355.8959243E-3	-34.3630068E-3	3.2926678E+0	115.0000000E+0
355.9705725E-3	-31.1938505E-3	3.2933571E+0	115.0999985E+0
356.0201899E-3	-4.0077253E-3	3.2938152E+0	115.2000046E+0
356.0513797E-3	94.5214337E-3	3.2941032E+0	115.3000031E+0
356.1438063E-3	62.5074281E-3	3.2949567E+0	115.4000015E+0
356.1942706E-3	143.0938241E-3	3.2954226E+0	115.5000000E+0
356.2667300E-3	176.5988306E-3	3.2960917E+0	115.5999985E+0
356.3295946E-3	162.1402383E-3	3.2966722E+0	115.7000046E+0
356.3973094E-3	125.8009287E-3	3.2972974E+0	115.8000031E+0
356.4608008E-3	123.7906333E-3	3.2978837E+0	115.9000015E+0
356.5279558E-3	143.7782834E-3	3.2985037E+0	116.0000000E+0
356.5791235E-3	287.1758562E-3	3.2989762E+0	116.0999985E+0
356.6396678E-3	262.4229160E-3	3.2995353E+0	116.2000046E+0
356.7632391E-3	70.4532735E-3	3.3006763E+0	116.3000031E+0
356.8207027E-3	129.9515096E-3	3.3012069E+0	116.4000015E+0
356.8804283E-3	55.8838544E-3	3.3017583E+0	116.5000000E+0
356.9566127E-3	193.5344031E-3	3.3024618E+0	116.5999985E+0
357.0224214E-3	197.9254861E-3	3.3030694E+0	116.7000046E+0
357.1241171E-3	128.5268191E-3	3.3040085E+0	116.8000031E+0
357.1596990E-3	172.8066146E-3	3.3043370E+0	116.9000015E+0
357.2123314E-3	170.6796635E-3	3.3048230E+0	117.0000000E+0
357.3068881E-3	105.7776655E-3	3.3056961E+0	117.0999985E+0
357.3763933E-3	216.9255475E-3	3.3063379E+0	117.2000046E+0
357.4335145E-3	127.5632682E-3	3.3068653E+0	117.3000031E+0
357.4738343E-3	120.4767599E-3	3.3072376E+0	117.4000015E+0
357.5880900E-3	89.0329307E-3	3.3082926E+0	117.5000000E+0
357.6442788E-3	34.4028977E-3	3.3088114E+0	117.5999985E+0
357.7491414E-3	107.4408154E-3	3.3097797E+0	117.7000046E+0
357.8046442E-3	148.5262819E-3	3.3102922E+0	117.8000031E+0
357.8410702E-3	163.3417173E-3	3.3106285E+0	117.9000015E+0
357.9058510E-3	145.5254419E-3	3.3112267E+0	118.0000000E+0
357.9679122E-3	78.9522058E-3	3.3117997E+0	118.0999985E+0
358.0674632E-3	-64.7591424E-3	3.3127190E+0	118.2000046E+0
358.1237196E-3	-22.7464500E-3	3.3132384E+0	118.3000031E+0
358.2294565E-3	-102.2263061E-3	3.3142147E+0	118.4000015E+0
358.2806834E-3	-102.7703143E-3	3.3146878E+0	118.5000000E+0
358.3644872E-3	-131.1613644E-3	3.3154616E+0	118.5999985E+0
358.4183352E-3	-99.3437107E-3	3.3159588E+0	118.7000046E+0
358.4859718E-3	-7.4403177E-3	3.3165833E+0	118.8000031E+0
358.5361674E-3	66.0354239E-3	3.3170468E+0	118.9000015E+0
358.6332793E-3	-11.4274723E-3	3.3179435E+0	119.0000000E+0
358.6996422E-3	-19.6275719E-3	3.3185563E+0	119.0999985E+0
358.7746121E-3	3.4146886E-3	3.3192485E+0	119.2000046E+0
358.8260317E-3	-16.5095295E-3	3.3197233E+0	119.3000031E+0
358.8646834E-3	-7.9475470E-3	3.3200802E+0	119.4000015E+0
358.9335054E-3	-6.1764022E-3	3.3207157E+0	119.5000000E+0
359.0304079E-3	-121.2242784E-3	3.3216104E+0	119.5999985E+0
359.0868955E-3	-101.6464837E-3	3.3221320E+0	119.7000046E+0
359.1682692E-3	24.1684441E-3	3.3228834E+0	119.8000031E+0
359.2289518E-3	26.3598280E-3	3.3234437E+0	119.9000015E+0
359.2524351E-3	200.6634367E-3	3.3236605E+0	120.0000000E+0
359.3234045E-3	67.2332818E-3	3.3243158E+0	120.0999985E+0
359.4651692E-3	-129.3801763E-3	3.3256248E+0	120.2000046E+0
359.4844207E-3	-44.8655493E-3	3.3258026E+0	120.3000031E+0
359.5821019E-3	-33.1561373E-3	3.3267045E+0	120.4000015E+0
359.6278563E-3	-39.6580104E-3	3.3271270E+0	120.5000000E+0
359.7195923E-3	-54.5468800E-3	3.3279741E+0	120.5999985E+0
359.7849312E-3	-28.7701714E-3	3.3285774E+0	120.7000046E+0
359.8296465E-3	67.4718134E-3	3.3289903E+0	120.8000031E+0
359.9040834E-3	43.2163284E-3	3.3296776E+0	120.9000015E+0
359.9573684E-3	70.4414351E-3	3.3301696E+0	121.0000000E+0
360.0367360E-3	44.5919373E-3	3.3309025E+0	121.0999985E+0
360.0896254E-3	96.4559687E-3	3.3313908E+0	121.2000046E+0
360.1481593E-3	93.3615979E-3	3.3319313E+0	121.3000031E+0
360.2302481E-3	-31.2561064E-3	3.3326893E+0	121.4000015E+0
360.2918949E-3	93.5250603E-3	3.3332585E+0	121.5000000E+0
360.3749233E-3	23.0407705E-3	3.3340251E+0	121.5999985E+0
360.4456257E-3	6.9120697E-3	3.3346780E+0	121.7000046E+0
360.5027469E-3	-4.3382403E-3	3.3352054E+0	121.8000031E+0
360.5839633E-3	-11.5259158E-3	3.3359553E+0	121.9000015E+0
360.6403937E-3	87.8295482E-3	3.3364764E+0	122.0000000E+0
360.7131414E-3	130.8773634E-3	3.3371481E+0	122.0999985E+0
360.7763909E-3	154.5286013E-3	3.3377321E+0	122.2000046E+0
360.8496620E-3	71.8086050E-3	3.3384087E+0	122.3000031E+0
360.9412936E-3	78.2081884E-3	3.3392548E+0	122.4000015E+0
360.9860435E-3	94.5591360E-3	3.3396680E+0	122.5000000E+0
361.0462249E-3	163.7885580E-3	3.3402237E+0	122.5999985E+0
361.1258003E-3	170.2347624E-3	3.3409585E+0	122.7000046E+0
361.1918861E-3	258.5157156E-3	3.3415687E+0	122.8000031E+0
361.2733850E-3	108.1711735E-3	3.3423212E+0	122.9000015E+0
361.3284520E-3	131.8925854E-3	3.3428297E+0	123.0000000E+0
361.3946115E-3	81.3260812E-3	3.3434405E+0	123.0999985E+0
361.4771852E-3	-1.5317561E-3	3.3442030E+0	123.2000046E+0
361.5544025E-3	3.7581872E-3	3.3449160E+0	123.3000031E+0
361.5691084E-3	187.8400671E-3	3.3450518E+0	123.4000015E+0
361.6503083E-3	277.1057204E-3	3.3458016E+0	123.5000000E+0
361.7170377E-3	236.2794344E-3	3.3464177E+0	123.5999985E+0
361.7850647E-3	251.9674691E-3	3.3470458E+0	123.7000046E+0
361.8758807E-3	50.7941422E-3	3.3478844E+0	123.8000031E+0
361.9234199E-3	113.2760667E-3	3.3483234E+0	123.9000015E+0
361.9804819E-3	217.3783357E-3	3.3488502E+0	124.0000000E+0
362.0305881E-3	219.1509764E-3	3.3493129E+0	124.0999985E+0
362.1229057E-3	146.2322368E-3	3.3501653E+0	124.2000046E+0
362.1836854E-3	190.5837228E-3	3.3507266E+0	124.3000031E+0
362.2427121E-3	121.3242741E-3	3.3512716E+0	124.4000015E+0
362.3153492E-3	69.7014670E-3	3.3519423E+0	124.5000000E+0
362.4126717E-3	52.7818028E-3	3.3528409E+0	124.5999985E+0
362.4904299E-3	-83.1150208E-3	3.3535589E+0	124.7000046E+0
362.5554833E-3	-57.5340503E-3	3.3541596E+0	124.8000031E+0
362.6218958E-3	51.0245030E-3	3.3547728E+0	124.9000015E+0
362.6846481E-3	22.6203869E-3	3.3553522E+0	125.0000000E+0
362.7175044E-3	204.7055997E-3	3.3556556E+0	125.0999985E+0
362.7887510E-3	82.4566331E-3	3.3563135E+0	125.2000046E+0
362.8523865E-3	157.5448131E-3	3.3569011E+0	125.3000031E+0
362.9286053E-3	144.3166848E-3	3.3576049E+0	125.4000015E+0
363.0013136E-3	74.6260318E-3	3.3582762E+0	125.5000000E+0
363.0551722E-3	58.7329516E-3	3.3587735E+0	125.5999985E+0
363.1478820E-3	95.7699877E-3	3.3596296E+0	125.7000046E+0
363.2004630E-3	77.3143317E-3	3.3601151E+0	125.8000031E+0
363.2920835E-3	130.0603865E-3	3.3609611E+0	125.9000015E+0
363.3178025E-3	155.6589830E-3	3.3611985E+0	126.0000000E+0
363.3959107E-3	51.0391167E-3	3.3619198E+0	126.0999985E+0
363.4943396E-3	-2.0881133E-3	3.3628286E+0	126.2000046E+0
363.5415358E-3	27.9603763E-3	3.3632644E+0	126.3000031E+0
363.6180789E-3	67.4044611E-3	3.3639712E+0	126.4000015E+0
363.6574323E-3	170.5304896E-3	3.3643346E+0	126.5000000E+0
363.7762622E-3	-25.1562429E-3	3.3654318E+0	126.5999985E+0
363.8394245E-3	-167.2352158E-3	3.3660150E+0	126.7000046E+0
363.9204178E-3	-29.9893126E-3	3.3667629E+0	126.8000031E+0
363.9720737E-3	85.8562999E-3	3.3672398E+0	126.9000015E+0
364.0561222E-3	65.2815180E-3	3.3680159E+0	127.0000000E+0
364.1090518E-3	57.6250705E-3	3.3685046E+0	127.0999985E+0
364.1975070E-3	-39.4590845E-3	3.3693214E+0	127.2000046E+0
364.2649648E-3	-81.9396738E-3	3.3699443E+0	127.3000031E+0
364.3211357E-3	-105.1890363E-3	3.3704629E+0	127.4000015E+0
364.3742552E-3	55.4263670E-3	3.3709534E+0	127.5000000E+0
364.4327384E-3	200.8656073E-3	3.3714934E+0	127.5999985E+0
364.4642746E-3	226.4758410E-3	3.3717846E+0	127.7000046E+0
364.5625027E-3	200.2818954E-3	3.3726916E+0	127.8000031E+0
364.6541136E-3	44.9737932E-3	3.3735375E+0	127.9000015E+0
364.7032640E-3	123.7149038E-3	3.3739914E+0	128.0000000E+0
364.7581276E-3	128.6170539E-3	3.3744979E+0	128.1000061E+0
364.8390877E-3	131.5916478E-3	3.3752455E+0	128.1999969E+0
364.9121892E-3	97.2043397E-3	3.3759205E+0	128.3000031E+0
364.9908133E-3	47.5288139E-3	3.3766465E+0	128.4000092E+0
365.0221244E-3	142.0432779E-3	3.3769356E+0	128.5000000E+0
365.1348128E-3	-11.0326297E-3	3.3779761E+0	128.6000061E+0
365.1651716E-3	30.7035781E-3	3.3782564E+0	128.6999969E+0
365.2257849E-3	130.3021680E-3	3.3788161E+0	128.8000031E+0
365.2642154E-3	204.6499413E-3	3.3791710E+0	128.9000092E+0
365.3370708E-3	237.9636561E-3	3.3798437E+0	129.0000000E+0
365.4290991E-3	133.2294500E-3	3.3806934E+0	129.1000061E+0
365.4902363E-3	113.6270397E-3	3.3812580E+0	129.1999969E+0
365.5700229E-3	19.6536900E-3	3.3819947E+0	129.3000031E+0
365.6704784E-3	37.0413853E-3	3.3829222E+0	129.4000092E+0
365.7099222E-3	114.6087892E-3	3.3832864E+0	129.5000000E+0
365.7747332E-3	185.6448454E-3	3.3838849E+0	129.6000061E+0
365.8708680E-3	142.1432722E-3	3.3847726E+0	129.6999969E+0
365.9466324E-3	41.5488816E-3	3.3854721E+0	129.8000031E+0
365.9849344E-3	125.3375144E-3	3.3858258E+0	129.9000092E+0
366.0633562E-3	78.2110667E-3	3.3865499E+0	130.0000000E+0
366.1007956E-3	172.3844721E-3	3.3868956E+0	130.1000061E+0
366.1620698E-3	194.3092364E-3	3.3874614E+0	130.1999969E+0
366.2398620E-3	129.5493195E-3	3.3881797E+0	130.3000031E+0
366.3266758E-3	70.4680831E-3	3.3889813E+0	130.4000092E+0
366.3769172E-3	95.5176265E-3	3.3894452E+0	130.5000000E+0
366.4531167E-3	98.9236742E-3	3.3901488E+0	130.6000061E+0
366.5277085E-3	31.9250715E-3	3.3908376E+0	130.6999969E+0
366.5700484E-3	158.3235460E-3	3.3912285E+0	130.8000031E+0
366.6626101E-3	175.9094761E-3	3.3920832E+0	130.9000092E+0
366.7093550E-3	133.1603696E-3	3.3925148E+0	131.0000000E+0
366.7610500E-3	289.9302094E-3	3.3929922E+0	131.1000061E+0
366.8729761E-3	211.4991457E-3	3.3940256E+0	131.1999969E+0
366.9353698E-3	51.7933939E-3	3.3946018E+0	131.3000031E+0
367.0035773E-3	8.7033319E-3	3.3952316E+0	131.4000092E+0
367.0327527E-3	60.7366031E-3	3.3955009E+0	131.5000000E+0
367.1332668E-3	131.3889050E-3	3.3964291E+0	131.6000061E+0
367.1906728E-3	113.5558702E-3	3.3969591E+0	131.6999969E+0
367.3002476E-3	45.3284751E-3	3.3979709E+0	131.8000031E+0
367.3747064E-3	-19.8704211E-3	3.3986584E+0	131.9000092E+0
367.4212663E-3	22.3192640E-3	3.3990883E+0	132.0000000E+0
367.4714195E-3	221.1937487E-3	3.3995514E+0	132.1000061E+0
367.5449084E-3	135.9102515E-3	3.4002300E+0	132.1999969E+0
367.6029094E-3	79.8575861E-3	3.4007656E+0	132.3000031E+0
367.6684991E-3	84.1004909E-3	3.4013712E+0	132.4000092E+0
367.7427384E-3	109.3445190E-3	3.4020567E+0	132.5000000E+0
367.8206904E-3	18.4082258E-3	3.4027765E+0	132.6000061E+0
367.8956597E-3	108.1053893E-3	3.4034687E+0	132.6999969E+0
367.9491558E-3	55.7301412E-3	3.4039627E+0	132.8000031E+0
367.9997246E-3	90.5294458E-3	3.4044296E+0	132.9000092E+0
368.0810156E-3	105.9903436E-3	3.4051802E+0	133.0000000E+0
368.1579771E-3	8.0704715E-3	3.4058908E+0	133.1000061E+0
368.2204021E-3	-95.5655512E-3	3.4064672E+0	133.1999969E+0
368.3060310E-3	-72.3772841E-3	3.4072579E+0	133.3000031E+0
368.3263088E-3	-27.3997569E-3	3.4074451E+0	133.4000092E+0
368.4514559E-3	-52.3019526E-3	3.4086007E+0	133.5000000E+0
368.5461098E-3	63.3479063E-3	3.4094747E+0	133.6000061E+0
368.5358229E-3	46.1763091E-3	3.4093797E+0	133.6999969E+0
368.6172586E-3	80.8890568E-3	3.4101317E+0	133.8000031E+0
368.6688542E-3	149.0320926E-3	3.4106081E+0	133.9000092E+0
368.8007548E-3	13.6701417E-3	3.4118260E+0	134.0000000E+0
368.6613577E-3	29.7864109E-3	3.4105389E+0	134.1000061E+0
369.1909309E-3	22.7961107E-3	3.4154287E+0	134.1999969E+0
368.8515503E-3	-9.1598946E-3	3.4122950E+0	134.3000031E+0
369.2372853E-3	126.1879740E-3	3.4158567E+0	134.4000092E+0
368.9652537E-3	120.8264245E-3	3.4133449E+0	134.5000000E+0
369.1735827E-3	301.6553079E-3	3.4152685E+0	134.6000061E+0
369.1812552E-3	333.6802956E-3	3.4153394E+0	134.6999969E+0
369.2962595E-3	85.9276036E-3	3.4164013E+0	134.8000031E+0
369.3307275E-3	36.9027138E-3	3.4167196E+0	134.9000092E+0
369.4735273E-3	67.2605436E-3	3.4180381E+0	135.0000000E+0
369.5114527E-3	-22.8891140E-3	3.4183883E+0	135.1000061E+0
369.5142247E-3	78.8318309E-3	3.4184139E+0	135.1999969E+0
369.6203806E-3	86.6290905E-3	3.4193941E+0	135.3000031E+0
369.7073470E-3	107.9585006E-3	3.4201971E+0	135.4000092E+0
369.7542879E-3	87.0005885E-3	3.4206305E+0	135.5000000E+0
369.8221747E-3	52.0247967E-3	3.4212574E+0	135.6000061E+0
369.8988245E-3	119.4757337E-3	3.4219651E+0	135.6999969E+0
369.9603514E-3	121.0090869E-3	3.4225333E+0	135.8000031E+0
370.0101104E-3	74.1308455E-3	3.4229927E+0	135.9000092E+0
370.1048403E-3	183.6367165E-3	3.4238674E+0	136.0000000E+0
370.1489360E-3	166.6883100E-3	3.4242746E+0	136.1000061E+0
370.2118660E-3	206.3225929E-3	3.4248556E+0	136.1999969E+0
370.2856326E-3	205.4997510E-3	3.4255368E+0	136.3000031E+0
370.3611254E-3	159.5694074E-3	3.4262338E+0	136.4000092E+0
370.4526219E-3	34.7131198E-3	3.4270787E+0	136.5000000E+0
370.4997270E-3	134.3008359E-3	3.4275136E+0	136.6000061E+0
370.5621229E-3	102.8417690E-3	3.4280898E+0	136.6999969E+0
370.6275500E-3	84.4546827E-3	3.4286939E+0	136.8000031E+0
370.7065394E-3	135.8206048E-3	3.4294233E+0	136.9000092E+0
370.7373656E-3	244.6155233E-3	3.4297079E+0	137.0000000E+0
370.8444907E-3	129.6593571E-3	3.4306971E+0	137.1000061E+0
370.9024761E-3	145.7864124E-3	3.4312325E+0	137.1999969E+0
370.9516589E-3	167.4835239E-3	3.4316866E+0	137.3000031E+0
371.0244417E-3	125.9546419E-3	3.4323586E+0	137.4000092E+0
371.0939447E-3	198.9955927E-3	3.4330004E+0	137.5000000E+0
371.1449291E-3	229.0506851E-3	3.4334712E+0	137.6000061E+0
371.2172740E-3	150.1987529E-3	3.4341392E+0	137.6999969E+0
371.3077537E-3	112.9537121E-3	3.4349746E+0	137.8000031E+0
371.3680837E-3	132.7297210E-3	3.4355317E+0	137.9000092E+0
371.4570008E-3	101.3082274E-3	3.4363527E+0	138.0000000E+0
371.5106226E-3	21.1443504E-3	3.4368479E+0	138.1000061E+0
371.5892416E-3	22.7142376E-3	3.4375738E+0	138.1999969E+0
371.6647406E-3	51.9653057E-3	3.4382709E+0	138.3000031E+0
371.7238723E-3	81.8646525E-3	3.4388169E+0	138.4000092E+0
371.7701842E-3	159.2265587E-3	3.4392445E+0	138.5000000E+0
371.8217195E-3	183.8689034E-3	3.4397204E+0	138.6000061E+0
371.9127779E-3	113.9074055E-3	3.4405612E+0	138.6999969E+0
371.9748419E-3	115.0111083E-3	3.4411343E+0	138.8000031E+0
372.0299218E-3	137.0008676E-3	3.4416429E+0	138.9000092E+0
372.0971461E-3	189.7353007E-3	3.4422636E+0	139.0000000E+0
372.2117225E-3	103.1132727E-3	3.4433215E+0	139.1000061E+0
372.2225781E-3	103.0218051E-3	3.4434218E+0	139.1999969E+0
372.3319283E-3	51.6478051E-3	3.4444315E+0	139.3000031E+0
372.3769715E-3	173.4479967E-3	3.4448474E+0	139.4000092E+0
372.4480359E-3	75.0317072E-3	3.4455036E+0	139.5000000E+0
372.5264500E-3	57.8047817E-3	3.4462276E+0	139.6000061E+0
372.5729434E-3	168.0578563E-3	3.4466569E+0	139.6999969E+0
372.6656621E-3	73.3976369E-3	3.4475130E+0	139.8000031E+0
372.7342087E-3	24.2160968E-3	3.4481460E+0	139.9000092E+0
372.7790972E-3	164.0214000E-3	3.4485605E+0	140.0000000E+0
372.8613284E-3	157.7930940E-3	3.4493197E+0	140.1000061E+0
372.9356179E-3	86.8592296E-3	3.4500057E+0	140.1999969E+0
373.0130643E-3	4.4453494E-3	3.4507208E+0	140.3000031E+0
373.0929454E-3	-125.9035936E-3	3.4514584E+0	140.4000092E+0
373.1395433E-3	-46.0023119E-3	3.4518887E+0	140.5000000E+0
373.1721135E-3	82.2004600E-3	3.4521894E+0	140.6000061E+0
373.2587832E-3	155.7941727E-3	3.4529897E+0	140.6999969E+0
373.2921127E-3	206.3648345E-3	3.4532974E+0	140.8000031E+0
373.3612962E-3	223.0387711E-3	3.4539363E+0	140.9000092E+0
373.4327159E-3	245.0584694E-3	3.4545957E+0	141.0000000E+0
373.5035278E-3	98.3483395E-3	3.4552496E+0	141.1000061E+0
373.5748280E-3	30.5184043E-3	3.4559079E+0	141.1999969E+0
373.6456796E-3	85.5501735E-3	3.4565621E+0	141.3000031E+0
373.6874301E-3	118.9963285E-3	3.4569476E+0	141.4000092E+0
373.7477445E-3	181.2322418E-3	3.4575046E+0	141.5000000E+0
373.8033227E-3	130.8381807E-3	3.4580178E+0	141.6000061E+0
373.8913745E-3	134.9197276E-3	3.4588308E+0	141.6999969E+0
373.9732727E-3	56.9900693E-3	3.4595870E+0	141.8000031E+0
374.0144992E-3	72.2480847E-3	3.4599677E+0	141.9000092E+0
374.0885709E-3	42.6950684E-3	3.4606516E+0	142.0000000E+0
374.1450082E-3	44.0201051E-3	3.4611727E+0	142.1000061E+0
374.2246367E-3	120.4726023E-3	3.4619080E+0	142.1999969E+0
374.3167035E-3	48.2141191E-3	3.4627581E+0	142.3000031E+0
374.3993761E-3	-17.9021610E-3	3.4635215E+0	142.4000092E+0
374.4836676E-3	-11.1526414E-3	3.4642998E+0	142.5000000E+0
374.5100040E-3	170.5661286E-3	3.4645430E+0	142.6000061E+0
374.5935810E-3	71.0582377E-3	3.4653147E+0	142.6999969E+0
374.6260351E-3	146.5766794E-3	3.4656144E+0	142.8000031E+0
374.7051133E-3	174.4412389E-3	3.4663445E+0	142.9000092E+0
374.7697661E-3	143.1584942E-3	3.4669415E+0	143.0000000E+0
374.8584090E-3	94.4935735E-3	3.4677600E+0	143.1000061E+0
374.9297265E-3	48.8929919E-3	3.4684185E+0	143.1999969E+0
374.9821639E-3	-103.2503592E-3	3.4689027E+0	143.3000031E+0
375.0430185E-3	45.2867442E-3	3.4694646E+0	143.4000092E+0
375.0982643E-3	130.4236983E-3	3.4699747E+0	143.5000000E+0
375.1378188E-3	254.1713259E-3	3.4703400E+0	143.6000061E+0
375.2040347E-3	313.5724666E-3	3.4709514E+0	143.6999969E+0
375.2775410E-3	248.6954247E-3	3.4716301E+0	143.8000031E+0
375.3842672E-3	106.8747089E-3	3.4726156E+0	143.9000092E+0
375.4523150E-3	71.4312729E-3	3.4732439E+0	144.0000000E+0
375.4997061E-3	94.8980797E-3	3.4736815E+0	144.1000061E+0
375.5841033E-3	68.8991037E-3	3.4744608E+0	144.1999969E+0
375.6220667E-3	123.5597927E-3	3.4748113E+0	144.3000031E+0
375.7058069E-3	115.9730344E-3	3.4755846E+0	144.4000092E+0
375.7574248E-3	35.1183276E-3	3.4760612E+0	144.5000000E+0
375.8457123E-3	-2.1297617E-3	3.4768764E+0	144.6000061E+0
375.8867081E-3	89.1144994E-3	3.4772549E+0	144.6999969E+0
375.9847418E-3	166.3701337E-3	3.4781601E+0	144.8000031E+0
376.0235455E-3	223.3246305E-3	3.4785184E+0	144.9000092E+0
376.0879575E-3	262.8626640E-3	3.4791132E+0	145.0000000E+0
376.1489445E-3	317.2791317E-3	3.4796763E+0	145.1000061E+0
376.1916006E-3	378.4205807E-3	3.4800702E+0	145.1999969E+0
376.3110489E-3	187.5822948E-3	3.4811731E+0	145.3000031E+0
376.3518850E-3	185.8140284E-3	3.4815502E+0	145.4000092E+0
376.4417652E-3	120.0010997E-3	3.4823801E+0	145.5000000E+0
376.5045527E-3	129.8413431E-3	3.4829599E+0	145.6000061E+0
376.5554070E-3	180.0691614E-3	3.4834294E+0	145.6999969E+0
376.6620516E-3	55.5076004E-3	3.4844141E+0	145.8000031E+0
376.7203789E-3	67.9139291E-3	3.4849527E+0	145.9000092E+0
376.7616357E-3	213.8861787E-3	3.4853337E+0	146.0000000E+0
376.8327386E-3	168.3251731E-3	3.4859902E+0	146.1000061E+0
376.9100319E-3	131.8311651E-3	3.4867039E+0	146.1999969E+0
376.9620007E-3	263.2528403E-3	3.4871838E+0	146.3000031E+0
377.0213324E-3	311.8646559E-3	3.4877316E+0	146.4000092E+0
377.1018788E-3	309.6730915E-3	3.4884753E+0	146.5000000E+0
377.1688193E-3	234.9184391E-3	3.4890934E+0	146.6000061E+0
377.2275560E-3	149.9638578E-3	3.4896358E+0	146.6999969E+0
377.3497205E-3	94.6741720E-3	3.4907638E+0	146.8000031E+0
377.3721273E-3	182.0526644E-3	3.4909707E+0	146.9000092E+0
377.4467173E-3	91.3652764E-3	3.4916594E+0	147.0000000E+0
377.5319385E-3	80.9899538E-3	3.4924463E+0	147.1000061E+0
377.5935852E-3	99.3268392E-3	3.4930156E+0	147.1999969E+0
377.6557627E-3	121.6562438E-3	3.4935897E+0	147.3000031E+0
377.6842118E-3	56.8123080E-3	3.4938524E+0	147.4000092E+0
377.6778768E-3	117.8565895E-3	3.4937939E+0	147.5000000E+0
377.6643178E-3	52.0443056E-3	3.4936687E+0	147.6000061E+0
377.5760996E-3	39.0229694E-3	3.4928541E+0	147.6999969E+0
377.4838127E-3	216.8485284E-3	3.4920020E+0	147.8000031E+0
377.4505089E-3	255.6472798E-3	3.4916944E+0	147.9000092E+0
377.4075103E-3	157.1467187E-3	3.4912974E+0	148.0000000E+0
377.3720234E-3	80.2393441E-3	3.4909697E+0	148.1000061E+0
377.3129067E-3	138.8343766E-3	3.4904239E+0	148.1999969E+0
377.2039688E-3	355.5455379E-3	3.4894180E+0	148.3000031E+0
377.1706846E-3	354.9593346E-3	3.4891107E+0	148.4000092E+0
377.1222275E-3	271.2543338E-3	3.4886632E+0	148.5000000E+0
377.0867450E-3	226.9682503E-3	3.4883356E+0	148.6000061E+0
377.0257312E-3	218.8079162E-3	3.4877722E+0	148.6999969E+0
376.9732418E-3	168.0096584E-3	3.4872876E+0	148.8000031E+0
376.9015952E-3	261.5210330E-3	3.4866260E+0	148.9000092E+0
376.8219394E-3	206.8717955E-3	3.4858905E+0	149.0000000E+0
376.7956137E-3	154.8575947E-3	3.4856474E+0	149.1000061E+0
376.7475337E-3	123.8533844E-3	3.4852035E+0	149.1999969E+0
376.6969995E-3	126.9188273E-3	3.4847368E+0	149.3000031E+0
376.6351254E-3	123.1159852E-3	3.4841655E+0	149.4000092E+0
376.5615376E-3	132.0160655E-3	3.4834860E+0	149.5000000E+0
376.5081286E-3	130.0498326E-3	3.4829929E+0	149.6000061E+0
376.4443696E-3	132.6221543E-3	3.4824042E+0	149.6999969E+0
376.3787280E-3	140.3053941E-3	3.4817980E+0	149.8000031E+0
376.3427622E-3	67.3125757E-3	3.4814659E+0	149.9000092E+0
376.2766664E-3	200.3144496E-3	3.4808556E+0	150.0000000E+0
376.2364427E-3	63.9450041E-3	3.4804842E+0	150.1000061E+0
376.1810070E-3	52.8502126E-3	3.4799724E+0	150.1999969E+0
376.1298673E-3	34.0645316E-3	3.4795002E+0	150.3000031E+0
376.0446975E-3	98.6326926E-3	3.4787137E+0	150.4000092E+0
375.9742728E-3	112.5932942E-3	3.4780635E+0	150.5000000E+0
375.9206303E-3	133.7651430E-3	3.4775681E+0	150.6000061E+0
375.8976319E-3	169.4937832E-3	3.4773558E+0	150.6999969E+0
375.8146644E-3	82.2471274E-3	3.4765897E+0	150.8000031E+0
375.7386866E-3	60.4705156E-3	3.4758881E+0	150.9000092E+0
375.7062996E-3	146.1810868E-3	3.4755891E+0	151.0000000E+0
375.6223784E-3	229.8262405E-3	3.4748142E+0	151.1000061E+0
375.5730521E-3	224.4132968E-3	3.4743587E+0	151.1999969E+0
375.4967185E-3	298.1598715E-3	3.4736539E+0	151.3000031E+0
375.4437112E-3	212.6001300E-3	3.4731645E+0	151.4000092E+0
375.4287277E-3	27.4788665E-3	3.4730261E+0	151.5000000E+0
375.3711044E-3	92.0516236E-3	3.4724940E+0	151.6000061E+0
375.3083817E-3	85.5638021E-3	3.4719149E+0	151.6999969E+0
375.2288159E-3	142.1953481E-3	3.4711802E+0	151.8000031E+0
375.1684176E-3	254.6512469E-3	3.4706225E+0	151.9000092E+0
375.1194270E-3	142.5156472E-3	3.4701701E+0	152.0000000E+0
375.0644521E-3	52.2252857E-3	3.4696625E+0	152.1000061E+0
375.0100168E-3	95.0105922E-3	3.4691599E+0	152.1999969E+0
374.9694262E-3	123.1488076E-3	3.4687851E+0	152.3000031E+0
374.8666870E-3	187.0389263E-3	3.4678364E+0	152.4000092E+0
374.8393110E-3	194.9673108E-3	3.4675837E+0	152.5000000E+0
374.7797614E-3	116.6987036E-3	3.4670338E+0	152.6000061E+0
374.7041742E-3	53.8285628E-3	3.4663359E+0	152.6999969E+0
374.6332807E-3	75.2504154E-3	3.4656813E+0	152.8000031E+0
374.5698552E-3	169.5318414E-3	3.4650956E+0	152.9000092E+0
374.5241701E-3	139.4671546E-3	3.4646738E+0	153.0000000E+0
374.4671278E-3	211.9013911E-3	3.4641471E+0	153.1000061E+0
374.4209198E-3	233.5546634E-3	3.4637204E+0	153.1999969E+0
374.3347797E-3	259.1595066E-3	3.4629250E+0	153.3000031E+0
374.2825138E-3	225.6881325E-3	3.4624424E+0	153.4000092E+0
374.2283998E-3	191.9252197E-3	3.4619427E+0	153.5000000E+0
374.2017769E-3	227.5568214E-3	3.4616969E+0	153.6000061E+0
374.0993757E-3	245.8619727E-3	3.4607514E+0	153.6999969E+0
374.0531297E-3	256.8874000E-3	3.4603244E+0	153.8000031E+0
374.0125006E-3	185.7705483E-3	3.4599492E+0	153.9000092E+0
373.9355237E-3	205.7029349E-3	3.4592384E+0	154.0000000E+0
373.8864857E-3	96.4628547E-3	3.4587856E+0	154.1000061E+0
373.8355417E-3	204.7817213E-3	3.4583153E+0	154.1999969E+0
373.7632833E-3	201.2966737E-3	3.4576480E+0	154.3000031E+0
373.7158228E-3	205.8192014E-3	3.4572098E+0	154.4000092E+0
373.6153177E-3	293.1377902E-3	3.4562818E+0	154.5000000E+0
373.5801821E-3	241.2028059E-3	3.4559574E+0	154.6000061E+0
373.5372478E-3	228.7458998E-3	3.4555609E+0	154.6999969E+0
373.4767094E-3	228.8310071E-3	3.4550019E+0	154.8000031E+0
373.4049626E-3	201.1312236E-3	3.4543395E+0	154.9000092E+0
373.3292640E-3	223.2294448E-3	3.4536405E+0	155.0000000E+0
373.2862050E-3	179.6377287E-3	3.4532429E+0	155.1000061E+0
373.2061318E-3	310.5284257E-3	3.4525035E+0	155.1999969E+0
373.1485610E-3	387.4395762E-3	3.4519719E+0	155.3000031E+0
373.0727083E-3	300.1405994E-3	3.4512715E+0	155.4000092E+0
373.0547238E-3	185.8026904E-3	3.4511055E+0	155.5000000E+0
373.0171860E-3	121.9232908E-3	3.4507589E+0	155.6000061E+0
372.9065928E-3	242.9499180E-3	3.4497377E+0	155.6999969E+0
372.8674523E-3	195.5824885E-3	3.4493763E+0	155.8000031E+0
372.7929097E-3	176.2172274E-3	3.4486880E+0	155.9000092E+0
372.7345551E-3	348.6867494E-3	3.4481492E+0	156.0000000E+0
372.6581137E-3	328.1037244E-3	3.4474433E+0	156.1000061E+0
372.6296076E-3	115.5333535E-3	3.4471801E+0	156.1999969E+0
372.5714188E-3	223.3742588E-3	3.4466428E+0	156.3000031E+0
372.4972735E-3	151.1954512E-3	3.4459582E+0	156.4000092E+0
372.4574313E-3	109.7280411E-3	3.4455903E+0	156.5000000E+0
372.3918299E-3	186.8049133E-3	3.4449846E+0	156.6000061E+0
372.3360316E-3	114.2988611E-3	3.4444694E+0	156.6999969E+0
372.2832891E-3	130.8117185E-3	3.4439824E+0	156.8000031E+0
372.2287288E-3	186.7597263E-3	3.4434786E+0	156.9000092E+0
372.1744668E-3	153.1846233E-3	3.4429775E+0	157.0000000E+0
372.0748404E-3	190.4545685E-3	3.4420576E+0	157.1000061E+0
372.0287252E-3	224.1052205E-3	3.4416318E+0	157.1999969E+0
371.9711398E-3	237.4976832E-3	3.4411001E+0	157.3000031E+0
371.9087813E-3	126.9048688E-3	3.4405243E+0	157.4000092E+0
371.8576025E-3	124.5320354E-3	3.4400517E+0	157.5000000E+0
371.8033377E-3	41.8433089E-3	3.4395507E+0	157.6000061E+0
371.7792293E-3	-65.1868869E-3	3.4393281E+0	157.6999969E+0
371.6805079E-3	189.2833998E-3	3.4384165E+0	157.8000031E+0
371.6498203E-3	160.6831535E-3	3.4381332E+0	157.9000092E+0
371.6054374E-3	-29.4415852E-3	3.4377233E+0	158.0000000E+0
371.5027038E-3	80.6219274E-3	3.4367747E+0	158.1000061E+0
371.4428346E-3	186.5173053E-3	3.4362219E+0	158.1999969E+0
371.3848537E-3	103.8402160E-3	3.4356866E+0	158.3000031E+0
371.3120832E-3	237.2600594E-3	3.4350146E+0	158.4000092E+0
371.2508146E-3	133.8053883E-3	3.4344489E+0	158.5000000E+0
371.1928136E-3	149.5094809E-3	3.4339133E+0	158.6000061E+0
371.1318914E-3	133.7589169E-3	3.4333508E+0	158.6999969E+0
371.0844544E-3	118.8348211E-3	3.4329128E+0	158.8000031E+0
371.0149391E-3	237.6264559E-3	3.4322709E+0	158.9000092E+0
370.9344079E-3	307.2455586E-3	3.4315273E+0	159.0000000E+0
370.8826067E-3	266.0848428E-3	3.4310490E+0	159.1000061E+0
370.8414640E-3	205.5202244E-3	3.4306691E+0	159.1999969E+0
370.7823580E-3	157.1501386E-3	3.4301233E+0	159.3000031E+0
370.6887890E-3	207.0765297E-3	3.4292594E+0	159.4000092E+0
370.6638711E-3	273.3451096E-3	3.4290293E+0	159.5000000E+0
370.6012456E-3	197.3082399E-3	3.4284510E+0	159.6000061E+0
370.5021169E-3	279.1729948E-3	3.4275357E+0	159.6999969E+0
370.4905015E-3	234.0767538E-3	3.4274285E+0	159.8000031E+0
370.3969962E-3	194.6985358E-3	3.4265651E+0	159.9000092E+0
370.3544736E-3	211.4458188E-3	3.4261724E+0	160.0000000E+0
370.3076294E-3	239.1538384E-3	3.4257399E+0	160.1000061E+0
370.2220837E-3	311.6052846E-3	3.4249500E+0	160.1999969E+0
370.1622670E-3	200.1357392E-3	3.4243977E+0	160.3000031E+0
370.1507662E-3	74.7138816E-3	3.4242915E+0	160.4000092E+0
370.0327278E-3	181.4942645E-3	3.4232015E+0	160.5000000E+0
369.9541680E-3	303.3237296E-3	3.4224762E+0	160.6000061E+0
369.9453409E-3	200.1584462E-3	3.4223947E+0	160.6999969E+0
369.8484429E-3	152.1781757E-3	3.4214999E+0	160.8000031E+0
369.7985367E-3	88.7385033E-3	3.4210391E+0	160.9000092E+0
369.7868458E-3	37.7919950E-3	3.4209312E+0	161.0000000E+0
369.6724337E-3	51.4528201E-3	3.4198747E+0	161.1000061E+0
369.6429673E-3	116.5139114E-3	3.4196027E+0	161.1999969E+0
369.5698850E-3	148.3759680E-3	3.4189278E+0	161.3000031E+0
369.5345405E-3	219.5887177E-3	3.4186015E+0	161.4000092E+0
369.5004396E-3	46.4164914E-3	3.4182866E+0	161.5000000E+0
369.3941837E-3	56.9322238E-3	3.4173055E+0	161.6000061E+0
369.3530627E-3	76.9839301E-3	3.4169258E+0	161.6999969E+0
369.1945677E-3	223.8274390E-3	3.4154623E+0	161.8000031E+0
369.2125785E-3	188.0245446E-3	3.4156286E+0	161.9000092E+0
369.1482776E-3	122.7575377E-3	3.4150349E+0	162.0000000E+0
369.4132604E-3	116.2711706E-3	3.4174816E+0	162.1000061E+0
368.9722685E-3	175.9796707E-3	3.4134097E+0	162.1999969E+0
368.8900886E-3	243.6206200E-3	3.4126509E+0	162.3000031E+0
369.1552211E-3	407.3203405E-3	3.4150990E+0	162.4000092E+0
368.7744313E-3	342.1442595E-3	3.4115829E+0	162.5000000E+0
368.7395873E-3	261.3796740E-3	3.4112612E+0	162.6000061E+0
368.6982164E-3	152.1836949E-3	3.4108792E+0	162.6999969E+0
368.6751056E-3	129.2018836E-3	3.4106658E+0	162.8000031E+0
368.6481244E-3	98.4562312E-3	3.4104167E+0	162.9000092E+0
368.5339173E-3	87.3970065E-3	3.4093621E+0	163.0000000E+0
368.5018102E-3	126.9201066E-3	3.4090657E+0	163.1000061E+0
368.3841635E-3	178.9655411E-3	3.4079793E+0	163.1999969E+0
368.3816646E-3	230.1725040E-3	3.4079563E+0	163.3000031E+0
368.2886247E-3	178.2490847E-3	3.4070972E+0	163.4000092E+0
368.2796193E-3	115.5192815E-3	3.4070140E+0	163.5000000E+0
368.1899234E-3	43.3716664E-3	3.4061858E+0	163.6000061E+0
368.1614408E-3	-63.3868090E-3	3.4059228E+0	163.6999969E+0
368.0885976E-3	38.7251737E-3	3.4052502E+0	163.8000031E+0
368.0368545E-3	151.2767053E-3	3.4047724E+0	163.9000092E+0
367.9651695E-3	131.3274538E-3	3.4041105E+0	164.0000000E+0
367.8970631E-3	118.9470767E-3	3.4034817E+0	164.1000061E+0
367.8471965E-3	173.5556820E-3	3.4030212E+0	164.1999969E+0
367.7653686E-3	199.4259680E-3	3.4022656E+0	164.3000031E+0
367.7355547E-3	-14.5543199E-3	3.4019903E+0	164.4000092E+0
367.6343825E-3	39.8925510E-3	3.4010562E+0	164.5000000E+0
367.5911544E-3	151.5490240E-3	3.4006570E+0	164.6000061E+0
367.5206944E-3	127.1534747E-3	3.4000064E+0	164.6999969E+0
367.4770651E-3	130.8279466E-3	3.3996036E+0	164.8000031E+0
367.4592622E-3	31.8510804E-3	3.3994392E+0	164.9000092E+0
367.3618955E-3	56.1184864E-3	3.3985401E+0	165.0000000E+0
367.3470433E-3	58.0611870E-3	3.3984030E+0	165.1000061E+0
367.2494018E-3	111.0767080E-3	3.3975014E+0	165.1999969E+0
367.1947554E-3	181.9644105E-3	3.3969968E+0	165.3000031E+0
367.1550183E-3	77.3542778E-3	3.3966299E+0	165.4000092E+0
367.0944396E-3	-16.4006216E-3	3.3960705E+0	165.5000000E+0
367.0258204E-3	76.7131279E-3	3.3954369E+0	165.6000061E+0
366.9262119E-3	240.1579184E-3	3.3945172E+0	165.6999969E+0
366.8806653E-3	139.2800618E-3	3.3940966E+0	165.8000031E+0
366.7967727E-3	73.2505191E-3	3.3933220E+0	165.9000092E+0
366.7280238E-3	194.5008891E-3	3.3926872E+0	166.0000000E+0
366.6867186E-3	78.8992348E-3	3.3923058E+0	166.1000061E+0
366.6198133E-3	-2.3425688E-3	3.3916880E+0	166.1999969E+0
366.5796426E-3	74.3611135E-3	3.3913171E+0	166.3000031E+0
366.5328469E-3	-1.7355155E-3	3.3908850E+0	166.4000092E+0
366.4380847E-3	20.8397921E-3	3.3900100E+0	166.5000000E+0
366.3860494E-3	121.8261593E-3	3.3895295E+0	166.6000061E+0
366.3008562E-3	158.1949797E-3	3.3887429E+0	166.6999969E+0
366.2147212E-3	236.3044575E-3	3.3879476E+0	166.8000031E+0
366.1833358E-3	141.6076876E-3	3.3876578E+0	166.9000092E+0
366.1435925E-3	129.3200832E-3	3.3872908E+0	167.0000000E+0
366.0577172E-3	287.1510231E-3	3.3864979E+0	167.1000061E+0
365.9987251E-3	257.3362317E-3	3.3859531E+0	167.1999969E+0
365.9447274E-3	219.9746075E-3	3.3854545E+0	167.3000031E+0
365.9112689E-3	23.7082279E-3	3.3851456E+0	167.4000092E+0
365.8295003E-3	94.8854643E-3	3.3843906E+0	167.5000000E+0
365.7859207E-3	112.6943408E-3	3.3839882E+0	167.6000061E+0
365.7312302E-3	158.5304674E-3	3.3834832E+0	167.6999969E+0
365.6432544E-3	222.2878415E-3	3.3826709E+0	167.8000031E+0
365.5773094E-3	150.3742980E-3	3.3820620E+0	167.9000092E+0
365.5648381E-3	65.5895014E-3	3.3819468E+0	168.0000000E+0
365.4702105E-3	24.3694024E-3	3.3810730E+0	168.1000061E+0
365.3890597E-3	116.1128613E-3	3.3803237E+0	168.1999969E+0
365.3368284E-3	185.0723735E-3	3.3798414E+0	168.3000031E+0
365.2678404E-3	160.2346312E-3	3.3792044E+0	168.4000092E+0
365.2081853E-3	106.2579063E-3	3.3786536E+0	168.5000000E+0
365.1375320E-3	174.0748374E-3	3.3780012E+0	168.6000061E+0
365.0866861E-3	107.6633046E-3	3.3775317E+0	168.6999969E+0
365.0267209E-3	164.4658059E-3	3.3769780E+0	168.8000031E+0
364.9336307E-3	276.0645005E-3	3.3761185E+0	168.9000092E+0
364.8856579E-3	204.9003681E-3	3.3756755E+0	169.0000000E+0
364.8470386E-3	210.8054633E-3	3.3753189E+0	169.1000061E+0
364.8096746E-3	55.1351120E-3	3.3749739E+0	169.1999969E+0
364.7546652E-3	41.4309156E-3	3.3744660E+0	169.3000031E+0
364.6788801E-3	17.4132762E-3	3.3737662E+0	169.4000092E+0
364.6106123E-3	100.0967618E-3	3.3731358E+0	169.5000000E+0
364.5432148E-3	253.7448916E-3	3.3725135E+0	169.6000061E+0
364.5144959E-3	37.8565155E-3	3.3722483E+0	169.6999969E+0
364.4471990E-3	64.0012918E-3	3.3716270E+0	169.8000031E+0
364.3461240E-3	190.2398992E-3	3.3706937E+0	169.9000092E+0
364.2759579E-3	144.8477504E-3	3.3700458E+0	170.0000000E+0
364.2399016E-3	151.1743640E-3	3.3697128E+0	170.1000061E+0
364.1752013E-3	75.2060692E-3	3.3691154E+0	170.1999969E+0
364.1153869E-3	117.2937328E-3	3.3685631E+0	170.3000031E+0
364.0665717E-3	72.9736404E-3	3.3681124E+0	170.4000092E+0
364.0102601E-3	99.3911843E-3	3.3675924E+0	170.5000000E+0
363.9117934E-3	235.2356198E-3	3.3666832E+0	170.6000061E+0
363.8365386E-3	245.5473969E-3	3.3659884E+0	170.6999969E+0
363.7826006E-3	238.8549852E-3	3.3654903E+0	170.8000031E+0
363.7152925E-3	212.2231590E-3	3.3648688E+0	170.9000092E+0
363.6936896E-3	53.1831728E-3	3.3646693E+0	171.0000000E+0
363.6289546E-3	138.3826562E-3	3.3640716E+0	171.1000061E+0
363.5166531E-3	135.8426567E-3	3.3630347E+0	171.1999969E+0
363.4768126E-3	143.4340730E-3	3.3626668E+0	171.3000031E+0
363.4469417E-3	70.9422732E-3	3.3623910E+0	171.4000092E+0
363.3741142E-3	73.0990808E-3	3.3617185E+0	171.5000000E+0
363.3019201E-3	187.3008562E-3	3.3610519E+0	171.6000061E+0
363.2405499E-3	32.4934528E-3	3.3604852E+0	171.6999969E+0
363.1553708E-3	84.2286524E-3	3.3596987E+0	171.8000031E+0
363.1393210E-3	-340.7386778E-6	3.3595505E+0	171.9000092E+0
363.0492841E-3	75.3135276E-3	3.3587192E+0	172.0000000E+0
362.9616312E-3	137.9452450E-3	3.3579098E+0	172.1000061E+0
362.9588837E-3	75.3627794E-3	3.3578844E+0	172.1999969E+0
362.8704923E-3	42.9829396E-3	3.3570683E+0	172.3000031E+0
362.8073724E-3	94.5396323E-3	3.3564854E+0	172.4000092E+0
362.7572550E-3	22.2495904E-3	3.3560227E+0	172.5000000E+0
362.7035461E-3	-20.8204882E-3	3.3555267E+0	172.6000061E+0
362.6393653E-3	-37.2702591E-3	3.3549341E+0	172.6999969E+0
362.5400327E-3	131.2247617E-3	3.3540169E+0	172.8000031E+0
362.4943784E-3	129.6644535E-3	3.3535954E+0	172.9000092E+0
362.4451124E-3	148.2362288E-3	3.3531405E+0	173.0000000E+0
362.3800724E-3	51.2854580E-3	3.3525399E+0	173.1000061E+0
362.3227563E-3	52.8953377E-3	3.3520107E+0	173.1999969E+0
362.2971602E-3	-71.6201697E-3	3.3517743E+0	173.3000031E+0
362.1991677E-3	-53.1613890E-3	3.3508695E+0	173.4000092E+0
362.1217481E-3	-2.6328933E-3	3.3501546E+0	173.5000000E+0
362.0424487E-3	1.7410672E-3	3.3494224E+0	173.6000061E+0
361.9858555E-3	81.1126396E-3	3.3488999E+0	173.6999969E+0
361.9219770E-3	116.7133274E-3	3.3483100E+0	173.8000031E+0
361.8692999E-3	75.2310149E-3	3.3478236E+0	173.9000092E+0
361.8159948E-3	152.6065031E-3	3.3473314E+0	174.0000000E+0
361.7394143E-3	174.1771787E-3	3.3466243E+0	174.1000061E+0
361.6750603E-3	148.5333178E-3	3.3460301E+0	174.1999969E+0
361.5943838E-3	183.0657508E-3	3.3452852E+0	174.3000031E+0
361.5186798E-3	300.8886919E-3	3.3445861E+0	174.4000092E+0
361.4846654E-3	215.4264945E-3	3.3442721E+0	174.5000000E+0
361.4707797E-3	-40.8664068E-3	3.3441439E+0	174.6000061E+0
361.4129195E-3	50.8366675E-3	3.3436096E+0	174.6999969E+0
361.3230185E-3	45.9441222E-3	3.3427795E+0	174.8000031E+0
361.2713414E-3	13.4833688E-3	3.3423023E+0	174.9000092E+0
361.1857901E-3	74.0716794E-3	3.3415124E+0	175.0000000E+0
361.1549543E-3	32.1900913E-3	3.3412276E+0	175.1000061E+0
361.1048319E-3	100.2712268E-3	3.3407648E+0	175.1999969E+0
361.0178579E-3	126.4248808E-3	3.3399618E+0	175.3000031E+0
360.9551408E-3	109.0741398E-3	3.3393826E+0	175.4000092E+0
360.9177287E-3	147.0039235E-3	3.3390372E+0	175.5000000E+0
360.8427191E-3	3.9173321E-3	3.3383446E+0	175.6000061E+0
360.7820019E-3	-27.6124350E-3	3.3377840E+0	175.6999969E+0
360.7293062E-3	-65.3006655E-3	3.3372974E+0	175.8000031E+0
360.6632000E-3	-58.1309417E-3	3.3366870E+0	175.9000092E+0
360.5893211E-3	43.5275874E-3	3.3360048E+0	176.0000000E+0
360.5270453E-3	-80.8244937E-3	3.3354298E+0	176.1000061E+0
360.4483357E-3	53.7893904E-3	3.3347030E+0	176.1999969E+0
360.3903699E-3	42.8877786E-3	3.3341678E+0	176.3000031E+0
360.3141369E-3	84.2859845E-3	3.3334639E+0	176.4000092E+0
360.2500600E-3	94.1788739E-3	3.3328722E+0	176.5000000E+0
360.2011627E-3	33.2769676E-3	3.3324207E+0	176.6000061E+0
360.1190884E-3	112.5854948E-3	3.3316629E+0	176.6999969E+0
360.0402169E-3	148.7789370E-3	3.3309346E+0	176.8000031E+0
360.0003334E-3	109.0551468E-3	3.3305663E+0	176.9000092E+0
359.9191116E-3	171.5482856E-3	3.3298164E+0	177.0000000E+0
359.8864844E-3	111.8433086E-3	3.3295151E+0	177.1000061E+0
359.8436332E-3	-18.5136504E-3	3.3291194E+0	177.1999969E+0
359.7610474E-3	24.6912394E-3	3.3283569E+0	177.3000031E+0
359.6956247E-3	17.6914909E-3	3.3277528E+0	177.4000092E+0
359.6426917E-3	-46.6802098E-3	3.3272640E+0	177.5000000E+0
359.5841455E-3	-23.4781648E-3	3.3267234E+0	177.6000061E+0
359.5236981E-3	-36.5747868E-3	3.3261653E+0	177.6999969E+0
359.4561995E-3	11.7678721E-3	3.3255420E+0	177.8000031E+0
359.3587753E-3	138.7671068E-3	3.3246424E+0	177.9000092E+0
359.3257912E-3	102.8993403E-3	3.3243379E+0	178.0000000E+0
359.2557244E-3	18.9912045E-3	3.3236909E+0	178.1000061E+0
359.2105600E-3	-90.9156694E-3	3.3232739E+0	178.1999969E+0
359.1567924E-3	-82.6247212E-3	3.3227774E+0	178.3000031E+0
359.0724657E-3	25.2139248E-3	3.3219988E+0	178.4000092E+0
359.0379748E-3	-42.7727103E-3	3.3216803E+0	178.5000000E+0
358.9954349E-3	-247.9757222E-3	3.3212875E+0	178.6000061E+0
358.9620244E-3	-419.2738124E-3	3.3209790E+0	178.6999969E+0
358.8687358E-3	-199.0680762E-3	3.3201176E+0	178.8000031E+0
358.8160716E-3	-193.0931527E-3	3.3196313E+0	178.9000092E+0
358.7489294E-3	-214.5878202E-3	3.3190114E+0	179.0000000E+0
358.6845408E-3	-202.7098287E-3	3.3184168E+0	179.1000061E+0
358.6173970E-3	-74.8002978E-3	3.3177968E+0	179.1999969E+0
358.5377160E-3	2.2256050E-3	3.3170611E+0	179.3000031E+0
358.4603757E-3	-8.0438118E-3	3.3163470E+0	179.4000092E+0
358.4028797E-3	-74.4953216E-3	3.3158161E+0	179.5000000E+0
358.3351347E-3	-11.9010589E-3	3.3151905E+0	179.6000061E+0
358.2813923E-3	-75.4999690E-3	3.3146943E+0	179.6999969E+0
358.2358988E-3	-35.8937681E-3	3.3142742E+0	179.8000031E+0
358.1537408E-3	-39.8316864E-3	3.3135156E+0	179.9000092E+0
358.0908773E-3	-21.9871794E-3	3.3129352E+0	180.0000000E+0
358.0131024E-3	22.6824571E-3	3.3122170E+0	180.1000061E+0
357.9323476E-3	36.9463997E-3	3.3114714E+0	180.1999969E+0
357.8788348E-3	43.7338691E-3	3.3109772E+0	180.3000031E+0
357.8065793E-3	62.6430097E-3	3.3103101E+0	180.4000092E+0
357.7575178E-3	-20.7758015E-3	3.3098570E+0	180.5000000E+0
357.7087378E-3	-78.1179677E-3	3.3094066E+0	180.6000061E+0
357.6329766E-3	16.3305768E-3	3.3087071E+0	180.6999969E+0
357.5860487E-3	-87.4730234E-3	3.3082738E+0	180.8000031E+0
357.4840190E-3	-26.5922043E-3	3.3073317E+0	180.9000092E+0
357.4347647E-3	3.4830210E-3	3.3068769E+0	181.0000000E+0
357.3874093E-3	-93.7092939E-3	3.3064396E+0	181.1000061E+0
357.3003022E-3	61.6284377E-3	3.3056353E+0	181.1999969E+0
357.2388627E-3	129.7984567E-3	3.3050680E+0	181.3000031E+0
357.1871163E-3	102.4931482E-3	3.3045902E+0	181.4000092E+0
357.1250673E-3	48.7721012E-3	3.3040172E+0	181.5000000E+0
357.0460198E-3	99.7324080E-3	3.3032873E+0	181.6000061E+0
356.9798877E-3	93.5073289E-3	3.3026767E+0	181.6999969E+0
356.9202336E-3	93.6206030E-3	3.3021259E+0	181.8000031E+0
356.8556160E-3	70.3364682E-3	3.3015292E+0	181.9000092E+0
356.7974250E-3	42.1450199E-3	3.3009919E+0	182.0000000E+0
356.7420072E-3	72.3051668E-3	3.3004802E+0	182.1000061E+0
356.6841302E-3	67.3846324E-3	3.2999458E+0	182.1999969E+0
356.5898249E-3	144.2497603E-3	3.2990750E+0	182.3000031E+0
356.5417136E-3	141.9534868E-3	3.2986308E+0	182.4000092E+0
356.4692822E-3	217.1794097E-3	3.2979620E+0	182.5000000E+0
356.4111761E-3	248.1553213E-3	3.2974254E+0	182.6000061E+0
356.3254350E-3	197.0414029E-3	3.2966337E+0	182.6999969E+0
356.2904228E-3	221.1580221E-3	3.2963105E+0	182.8000031E+0
356.2223209E-3	251.8116152E-3	3.2956816E+0	182.9000092E+0
356.1631232E-3	256.6027218E-3	3.2951350E+0	183.0000000E+0
356.0929258E-3	223.9671989E-3	3.2944868E+0	183.1000061E+0
356.0251429E-3	279.6380083E-3	3.2938610E+0	183.1999969E+0
355.9632872E-3	235.2125415E-3	3.2932898E+0	183.3000031E+0
355.9105665E-3	298.4365129E-3	3.2928030E+0	183.4000092E+0
355.8612792E-3	235.8071323E-3	3.2923479E+0	183.5000000E+0
355.8052977E-3	205.9725896E-3	3.2918310E+0	183.6000061E+0
355.7421231E-3	94.3173494E-3	3.2912477E+0	183.6999969E+0
355.6912666E-3	158.4079467E-3	3.2907781E+0	183.8000031E+0
355.5941306E-3	238.9947451E-3	3.2898812E+0	183.9000092E+0
355.5410681E-3	100.9516318E-3	3.2893912E+0	184.0000000E+0
355.5120899E-3	87.5721680E-3	3.2891236E+0	184.1000061E+0
355.4487974E-3	-24.5645820E-3	3.2885392E+0	184.1999969E+0
355.3661723E-3	71.3234173E-3	3.2877763E+0	184.3000031E+0
355.3246961E-3	-12.5337182E-3	3.2873933E+0	184.4000092E+0
355.2382040E-3	47.4715512E-3	3.2865947E+0	184.5000000E+0
355.1620794E-3	39.7978852E-3	3.2858918E+0	184.6000061E+0
355.0839100E-3	-32.7066092E-3	3.2851700E+0	184.6999969E+0
355.0139059E-3	-41.2286302E-3	3.2845236E+0	184.8000031E+0
354.9585920E-3	96.6347462E-3	3.2840129E+0	184.9000092E+0
354.8692922E-3	185.3184776E-3	3.2831883E+0	185.0000000E+0
354.8462396E-3	101.2692149E-3	3.2829754E+0	185.1000061E+0
354.7690222E-3	115.8154215E-3	3.2822624E+0	185.1999969E+0
354.7160167E-3	119.2485489E-3	3.2817730E+0	185.3000031E+0
354.6430953E-3	183.7053017E-3	3.2810997E+0	185.4000092E+0
354.6140662E-3	75.2390103E-3	3.2808316E+0	185.5000000E+0
354.5322316E-3	55.9374753E-3	3.2800760E+0	185.6000061E+0
354.4810232E-3	66.3217269E-3	3.2796032E+0	185.6999969E+0
354.4092627E-3	54.4598809E-3	3.2789406E+0	185.8000031E+0
354.3332403E-3	144.0992968E-3	3.2782386E+0	185.9000092E+0
354.2597887E-3	133.2542307E-3	3.2775604E+0	186.0000000E+0
354.2042514E-3	64.2811314E-3	3.2770476E+0	186.1000061E+0
354.1357411E-3	111.9107899E-3	3.2764150E+0	186.1999969E+0
354.0786059E-3	83.4898319E-3	3.2758874E+0	186.3000031E+0
354.0058231E-3	143.9871805E-3	3.2752154E+0	186.4000092E+0
353.9256036E-3	75.3973196E-3	3.2744746E+0	186.5000000E+0
353.8817196E-3	128.5626850E-3	3.2740694E+0	186.6000061E+0
353.8245699E-3	149.8659939E-3	3.2735417E+0	186.6999969E+0
353.7587557E-3	116.7097527E-3	3.2729340E+0	186.8000031E+0
353.6583097E-3	223.1634429E-3	3.2720066E+0	186.9000092E+0
353.6073829E-3	168.3684309E-3	3.2715363E+0	187.0000000E+0
353.5687473E-3	50.1730582E-3	3.2711796E+0	187.1000061E+0
353.5114245E-3	-10.2166463E-3	3.2706503E+0	187.1999969E+0
353.4344708E-3	-76.1050724E-3	3.2699397E+0	187.3000031E+0
353.3560814E-3	34.2385119E-3	3.2692159E+0	187.4000092E+0
353.3005898E-3	122.9128758E-3	3.2687035E+0	187.5000000E+0
353.2460770E-3	-48.2812276E-3	3.2682002E+0	187.6000061E+0
353.1701546E-3	-54.4971846E-3	3.2674991E+0	187.6999969E+0
353.1125440E-3	968.9266104E-6	3.2669672E+0	187.8000031E+0
353.0492398E-3	51.5178873E-3	3.2663826E+0	187.9000092E+0
352.9984777E-3	18.1003094E-3	3.2659139E+0	188.0000000E+0
352.9285328E-3	-29.8150125E-3	3.2652681E+0	188.1000061E+0
352.8981887E-3	-260.1503883E-3	3.2649879E+0	188.1999969E+0
352.7964306E-3	-120.5454056E-3	3.2640483E+0	188.3000031E+0
352.7560102E-3	-52.2258465E-3	3.2636751E+0	188.4000092E+0
352.6825341E-3	-25.1259171E-3	3.2629966E+0	188.5000000E+0
352.6037497E-3	14.5704257E-3	3.2622692E+0	188.6000061E+0
352.5384818E-3	-49.5321905E-3	3.2616665E+0	188.6999969E+0
352.4893811E-3	-80.0435014E-3	3.2612131E+0	188.8000031E+0
352.4162502E-3	-31.1434794E-3	3.2605379E+0	188.9000092E+0
352.3469226E-3	5.3769754E-3	3.2598977E+0	189.0000000E+0
352.2821877E-3	-11.4437829E-3	3.2593000E+0	189.1000061E+0
352.2134815E-3	-19.0678980E-3	3.2586656E+0	189.1999969E+0
352.1508474E-3	-5.3896532E-3	3.2580872E+0	189.3000031E+0
352.1147219E-3	-70.1688416E-3	3.2577537E+0	189.4000092E+0
352.0670475E-3	-37.9832285E-3	3.2573135E+0	189.5000000E+0
352.0153855E-3	-186.3540839E-3	3.2568364E+0	189.6000061E+0
351.9466109E-3	-290.1544150E-3	3.2562014E+0	189.6999969E+0
351.8775587E-3	-306.6914185E-3	3.2555638E+0	189.8000031E+0
351.8097506E-3	-170.6571614E-3	3.2549377E+0	189.9000092E+0
351.7409677E-3	-145.0059499E-3	3.2543026E+0	190.0000000E+0
351.6977720E-3	-272.2066330E-3	3.2539037E+0	190.1000061E+0
351.6301969E-3	-355.3867939E-3	3.2532797E+0	190.1999969E+0
351.5713992E-3	-348.9355705E-3	3.2527368E+0	190.3000031E+0
351.5024174E-3	-428.1163826E-3	3.2520999E+0	190.4000092E+0
351.4704203E-3	-506.5519857E-3	3.2518044E+0	190.5000000E+0
351.3790502E-3	-427.7027822E-3	3.2509608E+0	190.6000061E+0
351.3283440E-3	-543.2547050E-3	3.2504926E+0	190.6999969E+0
351.2739680E-3	-572.9291484E-3	3.2499905E+0	190.8000031E+0
351.1851224E-3	-569.2568431E-3	3.2491701E+0	190.9000092E+0
351.1388139E-3	-649.1857476E-3	3.2487425E+0	191.0000000E+0
351.0863798E-3	-748.9356159E-3	3.2482584E+0	191.1000061E+0
351.0455387E-3	-970.6744295E-3	3.2478812E+0	191.1999969E+0
350.9913538E-3	-1.0297670E+0	3.2473809E+0	191.3000031E+0
350.9243429E-3	-1.0668070E+0	3.2467622E+0	191.4000092E+0
350.8994088E-3	-1.3306892E+0	3.2465319E+0	191.5000000E+0
350.8579147E-3	-1.3599425E+0	3.2461488E+0	191.6000061E+0
350.7796219E-3	-1.3713180E+0	3.2454259E+0	191.6999969E+0
350.7375993E-3	-1.5412439E+0	3.2450379E+0	191.8000031E+0
350.7191277E-3	-1.8894636E+0	3.2448673E+0	191.9000092E+0
350.6762196E-3	-1.9354974E+0	3.2444711E+0	192.0000000E+0
350.5987324E-3	-1.8555851E+0	3.2437556E+0	192.1000061E+0
350.4788472E-3	-1.4822681E+0	3.2426486E+0	192.1999969E+0
350.3510493E-3	-901.8015876E-3	3.2414686E+0	192.3000031E+0
350.2097685E-3	-409.0015018E-3	3.2401641E+0	192.4000092E+0
350.1008903E-3	-17.4162098E-3	3.2391587E+0	192.5000000E+0
349.9728165E-3	353.6821828E-3	3.2379761E+0	192.6000061E+0
349.9007448E-3	387.1661329E-3	3.2373107E+0	192.6999969E+0
349.8467124E-3	391.7228810E-3	3.2368117E+0	192.8000031E+0
349.7760776E-3	403.2626457E-3	3.2361595E+0	192.9000092E+0
349.7303003E-3	379.4409610E-3	3.2357368E+0	193.0000000E+0
349.6394514E-3	391.6737117E-3	3.2348980E+0	193.1000061E+0
349.5929334E-3	300.1475322E-3	3.2344685E+0	193.1999969E+0
349.5244700E-3	243.4084113E-3	3.2338363E+0	193.3000031E+0
349.4919690E-3	144.3047017E-3	3.2335362E+0	193.4000092E+0
349.4341953E-3	68.0947905E-3	3.2330027E+0	193.5000000E+0
349.3538747E-3	176.6455238E-3	3.2322611E+0	193.6000061E+0
349.2893688E-3	252.0520967E-3	3.2316655E+0	193.6999969E+0
349.2552656E-3	224.8022403E-3	3.2313506E+0	193.8000031E+0
349.1743874E-3	318.0632964E-3	3.2306038E+0	193.9000092E+0
349.0914366E-3	216.5589653E-3	3.2298378E+0	194.0000000E+0
349.0133712E-3	255.8045832E-3	3.2291170E+0	194.1000061E+0
348.9606142E-3	212.3193516E-3	3.2286299E+0	194.1999969E+0
348.9153811E-3	147.2291054E-3	3.2282122E+0	194.3000031E+0
348.8657994E-3	182.6800055E-3	3.2277544E+0	194.4000092E+0
348.7337145E-3	666.3814460E-3	3.2265348E+0	194.5000000E+0
348.5525674E-3	1.5533543E+0	3.2248621E+0	194.6000061E+0
348.3763102E-3	2.3519220E+0	3.2232346E+0	194.6999969E+0
348.3276358E-3	2.5086942E+0	3.2227852E+0	194.8000031E+0
348.2848896E-3	2.2058284E+0	3.2223905E+0	194.9000092E+0
348.2465470E-3	1.8271160E+0	3.2220364E+0	195.0000000E+0
348.2492570E-3	1.5469602E+0	3.2220615E+0	195.1000061E+0
348.2388332E-3	1.1590399E+0	3.2219652E+0	195.1999969E+0
348.1998083E-3	969.3024999E-3	3.2216049E+0	195.3000031E+0
348.1316343E-3	784.7270500E-3	3.2209754E+0	195.4000092E+0
348.0808499E-3	678.9158767E-3	3.2205065E+0	195.5000000E+0
348.0415725E-3	542.0094279E-3	3.2201438E+0	195.6000061E+0
347.9771918E-3	420.6247144E-3	3.2195493E+0	195.6999969E+0
347.9279738E-3	354.8320269E-3	3.2190949E+0	195.8000031E+0
347.8838295E-3	236.3252559E-3	3.2186873E+0	195.9000092E+0
347.8068858E-3	233.6611623E-3	3.2179768E+0	196.0000000E+0
347.7624426E-3	340.7517519E-3	3.2175664E+0	196.1000061E+0
347.6714993E-3	355.5150418E-3	3.2167267E+0	196.1999969E+0
347.6198853E-3	399.2037129E-3	3.2162501E+0	196.3000031E+0
347.5551101E-3	312.7954514E-3	3.2156520E+0	196.4000092E+0
347.4884065E-3	266.2898195E-3	3.2150361E+0	196.5000000E+0
347.4431907E-3	153.6233396E-3	3.2146186E+0	196.6000061E+0
347.3615689E-3	255.1163841E-3	3.2138649E+0	196.6999969E+0
347.3301886E-3	154.7953284E-3	3.2135751E+0	196.8000031E+0
347.2848845E-3	-5.3927843E-3	3.2131568E+0	196.9000092E+0
347.2068928E-3	53.1157172E-3	3.2124367E+0	197.0000000E+0
347.1295760E-3	65.7730762E-3	3.2117228E+0	197.1000061E+0
347.1024699E-3	30.0519155E-3	3.2114725E+0	197.1999969E+0
347.0431588E-3	-6.8640080E-3	3.2109248E+0	197.3000031E+0
346.9963307E-3	-108.0508075E-3	3.2104924E+0	197.4000092E+0
346.9274461E-3	-224.8068143E-3	3.2098564E+0	197.5000000E+0
346.8604705E-3	-250.8200892E-3	3.2092380E+0	197.6000061E+0
346.7919775E-3	-178.5300886E-3	3.2086055E+0	197.6999969E+0
346.7023754E-3	-81.2867990E-3	3.2077782E+0	197.8000031E+0
346.6247888E-3	108.6045251E-3	3.2070618E+0	197.9000092E+0
346.5428374E-3	180.7369799E-3	3.2063051E+0	198.0000000E+0
346.4448529E-3	359.6929206E-3	3.2054003E+0	198.1000061E+0
346.3810118E-3	391.9437660E-3	3.2048108E+0	198.1999969E+0
346.3219901E-3	418.6882347E-3	3.2042658E+0	198.3000031E+0
346.2939399E-3	332.6767728E-3	3.2040068E+0	198.4000092E+0
346.2232173E-3	334.1411669E-3	3.2033538E+0	198.5000000E+0
346.1379778E-3	347.7285786E-3	3.2025667E+0	198.6000061E+0
346.0897749E-3	317.5881829E-3	3.2021217E+0	198.6999969E+0
346.0123815E-3	330.5056147E-3	3.2014070E+0	198.8000031E+0
345.9561380E-3	266.5811725E-3	3.2008877E+0	198.9000092E+0
345.9031721E-3	240.0205468E-3	3.2003986E+0	199.0000000E+0
345.8342255E-3	206.9969109E-3	3.1997620E+0	199.1000061E+0
345.7485982E-3	265.7326988E-3	3.1989714E+0	199.1999969E+0
345.7029131E-3	160.1554560E-3	3.1985495E+0	199.3000031E+0
345.6521019E-3	166.3806877E-3	3.1980803E+0	199.4000092E+0
345.5823634E-3	264.7956989E-3	3.1974364E+0	199.5000000E+0
345.4772040E-3	358.6609421E-3	3.1964654E+0	199.6000061E+0
345.4334271E-3	226.6507497E-3	3.1960612E+0	199.6999969E+0
345.3677185E-3	195.3910782E-3	3.1954545E+0	199.8000031E+0
345.3463686E-3	184.9163030E-3	3.1952573E+0	199.9000092E+0
345.2676597E-3	127.9252904E-3	3.1945306E+0	200.0000000E+0
345.2272203E-3	37.2882837E-3	3.1941572E+0	200.1000061E+0
345.1492644E-3	10.6801549E-3	3.1934373E+0	200.1999969E+0
345.0629064E-3	85.7088490E-3	3.1926399E+0	200.3000031E+0
345.0003189E-3	25.3610405E-3	3.1920620E+0	200.4000092E+0
344.9313734E-3	54.4796374E-3	3.1914254E+0	200.5000000E+0
344.8698881E-3	61.3242611E-3	3.1908577E+0	200.6000061E+0
344.8240555E-3	-14.2479356E-3	3.1904345E+0	200.6999969E+0
344.7542380E-3	-138.6042671E-3	3.1897898E+0	200.8000031E+0
344.6970448E-3	-57.7663507E-3	3.1892617E+0	200.9000092E+0
344.6436705E-3	-109.8987083E-3	3.1887689E+0	201.0000000E+0
344.5696061E-3	-30.3125183E-3	3.1880850E+0	201.1000061E+0
344.5124341E-3	-156.2823611E-3	3.1875571E+0	201.1999969E+0
344.4627899E-3	-243.2062496E-3	3.1870987E+0	201.3000031E+0
344.3993337E-3	-144.6761003E-3	3.1865128E+0	201.4000092E+0
344.3592038E-3	-243.0582209E-3	3.1861422E+0	201.5000000E+0
344.2841763E-3	-216.1446053E-3	3.1854495E+0	201.6000061E+0
344.2078439E-3	-258.6755091E-3	3.1847446E+0	201.6999969E+0
344.1374492E-3	-165.2239454E-3	3.1840946E+0	201.8000031E+0
344.0607095E-3	-131.0833652E-3	3.1833861E+0	201.9000092E+0
344.0130848E-3	-100.8347838E-3	3.1829463E+0	202.0000000E+0
343.9106188E-3	82.8304576E-3	3.1820002E+0	202.1000061E+0
343.8149945E-3	216.1261089E-3	3.1811172E+0	202.1999969E+0
343.7638085E-3	202.6491785E-3	3.1806446E+0	202.3000031E+0
343.6749896E-3	213.8958054E-3	3.1798245E+0	202.4000092E+0
343.6050017E-3	281.5610660E-3	3.1791782E+0	202.5000000E+0
343.5262738E-3	224.4814642E-3	3.1784513E+0	202.6000061E+0
343.4725140E-3	260.9313890E-3	3.1779549E+0	202.6999969E+0
343.4129996E-3	128.1511480E-3	3.1774054E+0	202.8000031E+0
343.3745669E-3	82.7986100E-3	3.1770505E+0	202.9000092E+0
343.3014002E-3	133.4402992E-3	3.1763749E+0	203.0000000E+0
343.2288956E-3	174.2066070E-3	3.1757054E+0	203.1000061E+0
343.1486867E-3	204.9186956E-3	3.1749648E+0	203.1999969E+0
343.0778396E-3	261.9128084E-3	3.1743106E+0	203.3000031E+0
343.0271591E-3	137.2910703E-3	3.1738427E+0	203.4000092E+0
342.9464300E-3	303.4291711E-3	3.1730972E+0	203.5000000E+0
342.8696624E-3	295.3091958E-3	3.1723884E+0	203.6000061E+0
342.8055648E-3	196.5873731E-3	3.1717965E+0	203.6999969E+0
342.7806547E-3	-3.8121058E-3	3.1715665E+0	203.8000031E+0
342.6848545E-3	54.5384578E-3	3.1706819E+0	203.9000092E+0
342.6265306E-3	31.7385049E-3	3.1701434E+0	204.0000000E+0
342.5700737E-3	80.6918847E-3	3.1696221E+0	204.1000061E+0
342.5236624E-3	-4.7288603E-3	3.1691936E+0	204.1999969E+0
342.4259180E-3	16.0092809E-3	3.1682910E+0	204.3000031E+0
342.4016035E-3	123.8725734E-3	3.1680665E+0	204.4000092E+0
342.2912181E-3	130.2663485E-3	3.1670473E+0	204.5000000E+0
342.2326245E-3	223.6499198E-3	3.1665062E+0	204.6000061E+0
342.1785120E-3	165.8526703E-3	3.1660066E+0	204.6999969E+0
342.1592555E-3	-4.4558813E-3	3.1658288E+0	204.8000031E+0
342.0810113E-3	-61.5018095E-3	3.1651063E+0	204.9000092E+0
342.0106982E-3	-41.9264753E-3	3.1644570E+0	205.0000000E+0
341.9160740E-3	-21.4940221E-3	3.1635833E+0	205.1000061E+0
341.9049027E-3	-175.2315510E-3	3.1634802E+0	205.1999969E+0
341.8164950E-3	-173.8646029E-3	3.1626639E+0	205.3000031E+0
341.7606040E-3	-214.2971224E-3	3.1621478E+0	205.4000092E+0
341.7335761E-3	-380.6500729E-3	3.1618982E+0	205.5000000E+0
341.6219717E-3	-298.2966639E-3	3.1608677E+0	205.6000061E+0
341.5665606E-3	-324.3898415E-3	3.1603561E+0	205.6999969E+0
341.5141701E-3	-369.7739433E-3	3.1598723E+0	205.8000031E+0
341.4442604E-3	-312.2502399E-3	3.1592268E+0	205.9000092E+0
341.3460094E-3	-314.5457396E-3	3.1583196E+0	206.0000000E+0
341.3064085E-3	-255.3759604E-3	3.1579539E+0	206.1000061E+0
341.2363424E-3	-382.4976900E-3	3.1573069E+0	206.1999969E+0
341.1918562E-3	-650.7486402E-3	3.1568962E+0	206.3000031E+0
341.1479481E-3	-706.0146132E-3	3.1564907E+0	206.4000092E+0
341.0572361E-3	-561.9349600E-3	3.1556531E+0	206.5000000E+0
340.9839113E-3	-544.0114738E-3	3.1549761E+0	206.6000061E+0
340.9474883E-3	-693.4299422E-3	3.1546398E+0	206.6999969E+0
340.9044907E-3	-816.3181069E-3	3.1542428E+0	206.8000031E+0
340.8641395E-3	-1.1265966E+0	3.1538702E+0	206.9000092E+0
340.8124971E-3	-1.3399389E+0	3.1533933E+0	207.0000000E+0
340.8159198E-3	-1.4899894E+0	3.1534249E+0	207.1000061E+0
340.7847535E-3	-1.6555177E+0	3.1531372E+0	207.1999969E+0
340.7044669E-3	-1.8640388E+0	3.1523958E+0	207.3000031E+0
340.6131833E-3	-1.6869932E+0	3.1515529E+0	207.4000092E+0
340.5091123E-3	-1.3276787E+0	3.1505920E+0	207.5000000E+0
340.3851216E-3	-883.9750058E-3	3.1494471E+0	207.6000061E+0
340.2427324E-3	-404.2781293E-3	3.1481323E+0	207.6999969E+0
340.1299225E-3	-121.3120062E-3	3.1470907E+0	207.8000031E+0
340.0467231E-3	-4.4074600E-3	3.1463225E+0	207.9000092E+0
339.9813334E-3	75.0097017E-3	3.1457187E+0	208.0000000E+0
339.9436376E-3	-99.1568501E-3	3.1453706E+0	208.1000061E+0
339.8554746E-3	22.4319014E-3	3.1445566E+0	208.1999969E+0
339.7957876E-3	99.4552095E-3	3.1440054E+0	208.3000031E+0
339.7252539E-3	74.0675063E-3	3.1433541E+0	208.4000092E+0
339.6500041E-3	75.2258978E-3	3.1426593E+0	208.5000000E+0
339.5558630E-3	190.7462413E-3	3.1417901E+0	208.6000061E+0
339.5040546E-3	96.4985817E-3	3.1413117E+0	208.6999969E+0
339.4368678E-3	264.3072295E-3	3.1406913E+0	208.8000031E+0
339.3784220E-3	187.5982857E-3	3.1401516E+0	208.9000092E+0
339.3574331E-3	93.7587173E-3	3.1399578E+0	209.0000000E+0
339.2977198E-3	-69.8870831E-3	3.1394065E+0	209.1000061E+0
339.2006051E-3	67.1767361E-3	3.1385097E+0	209.1999969E+0
339.0957565E-3	519.6361208E-3	3.1375416E+0	209.3000031E+0
338.9160200E-3	1.3761065E+0	3.1358820E+0	209.4000092E+0
338.7226598E-3	2.2359316E+0	3.1340966E+0	209.5000000E+0
338.5861548E-3	2.6837710E+0	3.1328361E+0	209.6000061E+0
338.5691485E-3	2.4783313E+0	3.1326791E+0	209.6999969E+0
338.5496070E-3	2.0803726E+0	3.1324987E+0	209.8000031E+0
338.5255762E-3	1.6509313E+0	3.1322768E+0	209.9000092E+0
338.5269963E-3	1.3368371E+0	3.1322899E+0	210.0000000E+0
338.4751700E-3	1.0427797E+0	3.1318114E+0	210.1000061E+0
338.4336753E-3	958.6098470E-3	3.1314282E+0	210.1999969E+0
338.4083329E-3	660.9436030E-3	3.1311942E+0	210.3000031E+0
338.3707822E-3	533.1418347E-3	3.1308475E+0	210.4000092E+0
338.3079573E-3	438.9323004E-3	3.1302674E+0	210.5000000E+0
338.2471429E-3	348.8293309E-3	3.1297058E+0	210.6000061E+0
338.1860381E-3	332.4813184E-3	3.1291416E+0	210.6999969E+0
338.1166406E-3	267.1800086E-3	3.1285008E+0	210.8000031E+0
338.0658897E-3	212.4031952E-3	3.1280322E+0	210.9000092E+0
337.9834859E-3	169.7576320E-3	3.1272713E+0	211.0000000E+0
337.9163823E-3	240.7458910E-3	3.1266517E+0	211.1000061E+0
337.8591075E-3	194.9057770E-3	3.1261229E+0	211.1999969E+0
337.8100236E-3	188.9971948E-3	3.1256697E+0	211.3000031E+0
337.7412407E-3	167.0113662E-3	3.1250345E+0	211.4000092E+0
337.7119385E-3	41.4104009E-3	3.1247640E+0	211.5000000E+0
337.6508727E-3	-95.7884841E-3	3.1242001E+0	211.6000061E+0
337.5545172E-3	126.6377084E-3	3.1233104E+0	211.6999969E+0
337.4716256E-3	143.4545464E-3	3.1225450E+0	211.8000031E+0
337.4201982E-3	97.9514315E-3	3.1220702E+0	211.9000092E+0
337.3449244E-3	23.9865819E-3	3.1213751E+0	212.0000000E+0
337.2879574E-3	-29.7983820E-3	3.1208491E+0	212.1000061E+0
337.2522129E-3	-238.5033918E-3	3.1205190E+0	212.1999969E+0
337.1899969E-3	-268.6332696E-3	3.1199446E+0	212.3000031E+0
337.1577233E-3	-407.6689547E-3	3.1196466E+0	212.4000092E+0
337.0702346E-3	-332.9350233E-3	3.1188387E+0	212.5000000E+0
337.0080398E-3	-287.3784784E-3	3.1182644E+0	212.6000061E+0
336.9317939E-3	-350.2444615E-3	3.1175604E+0	212.6999969E+0
336.8619110E-3	-279.2989496E-3	3.1169152E+0	212.8000031E+0
336.7355802E-3	76.4677460E-3	3.1157487E+0	212.9000092E+0
336.6661928E-3	331.0626219E-3	3.1151080E+0	213.0000000E+0
336.5561739E-3	402.8236044E-3	3.1140921E+0	213.1000061E+0
336.4835329E-3	550.0071920E-3	3.1134214E+0	213.1999969E+0
336.4231023E-3	582.6001071E-3	3.1128634E+0	213.3000031E+0
336.3486944E-3	582.2539881E-3	3.1121763E+0	213.4000092E+0
336.2700357E-3	653.7119082E-3	3.1114500E+0	213.5000000E+0
336.2263942E-3	464.0788463E-3	3.1110470E+0	213.6000061E+0
336.1496740E-3	557.6257773E-3	3.1103386E+0	213.6999969E+0
336.0550000E-3	617.5784677E-3	3.1094645E+0	213.8000031E+0
336.0173997E-3	444.5115024E-3	3.1091173E+0	213.9000092E+0
335.9622243E-3	447.1797330E-3	3.1086078E+0	214.0000000E+0
335.8762104E-3	457.6017178E-3	3.1078136E+0	214.1000061E+0
335.8530523E-3	339.0027364E-3	3.1075997E+0	214.1999969E+0
335.7939954E-3	275.0119064E-3	3.1070544E+0	214.3000031E+0
335.7431160E-3	230.3200375E-3	3.1065846E+0	214.4000092E+0
335.7041157E-3	155.6517975E-3	3.1062245E+0	214.5000000E+0
335.6308323E-3	28.2905509E-3	3.1055479E+0	214.6000061E+0
335.5282334E-3	161.1472075E-3	3.1046005E+0	214.6999969E+0
335.4658743E-3	264.1960880E-3	3.1040247E+0	214.8000031E+0
335.3794018E-3	282.7418292E-3	3.1032262E+0	214.9000092E+0
335.3522817E-3	234.4338394E-3	3.1029758E+0	215.0000000E+0
335.2705103E-3	122.4188179E-3	3.1022208E+0	215.1000061E+0
335.2119361E-3	90.5054595E-3	3.1016799E+0	215.1999969E+0
335.1127298E-3	127.0069110E-3	3.1007639E+0	215.3000031E+0
335.0700318E-3	78.1915579E-3	3.1003696E+0	215.4000092E+0
335.0081024E-3	58.6878575E-3	3.0997978E+0	215.5000000E+0
334.9242617E-3	35.2453412E-3	3.0990237E+0	215.6000061E+0
334.8794939E-3	51.7257991E-3	3.0986103E+0	215.6999969E+0
334.7717799E-3	74.0534499E-3	3.0976157E+0	215.8000031E+0
334.7326411E-3	-20.2195526E-3	3.0972543E+0	215.9000092E+0
334.6832125E-3	-140.1638222E-3	3.0967979E+0	216.0000000E+0
334.6229138E-3	-172.6371465E-3	3.0962411E+0	216.1000061E+0
334.5954015E-3	-333.3208460E-3	3.0959871E+0	216.1999969E+0
334.4998828E-3	-424.4877116E-3	3.0951051E+0	216.3000031E+0
334.4238945E-3	-430.6940276E-3	3.0944035E+0	216.4000092E+0
334.3683951E-3	-386.5020321E-3	3.0938910E+0	216.5000000E+0
334.2999907E-3	-268.8228926E-3	3.0932594E+0	216.6000061E+0
334.1969260E-3	-104.3739990E-3	3.0923077E+0	216.6999969E+0
334.1093966E-3	176.5100299E-3	3.0914995E+0	216.8000031E+0
334.0221152E-3	460.4409316E-3	3.0906936E+0	216.9000092E+0
333.8903090E-3	702.7618933E-3	3.0894765E+0	217.0000000E+0
333.8464211E-3	622.2412092E-3	3.0890713E+0	217.1000061E+0
333.8177273E-3	370.2324793E-3	3.0888063E+0	217.1999969E+0
333.7482818E-3	425.1728274E-3	3.0881651E+0	217.3000031E+0
333.6774157E-3	470.5207745E-3	3.0875108E+0	217.4000092E+0
333.6108802E-3	359.9490938E-3	3.0868964E+0	217.5000000E+0
333.5530373E-3	395.8694641E-3	3.0863623E+0	217.6000061E+0
333.4904257E-3	446.2100436E-3	3.0857842E+0	217.6999969E+0
333.3903865E-3	518.2970483E-3	3.0848604E+0	217.8000031E+0
333.3376356E-3	368.9365821E-3	3.0843734E+0	217.9000092E+0
333.2812279E-3	452.0836420E-3	3.0838525E+0	218.0000000E+0
333.1846478E-3	561.6056637E-3	3.0829607E+0	218.1000061E+0
333.1273914E-3	579.8491936E-3	3.0824321E+0	218.1999969E+0
333.0562980E-3	462.0821483E-3	3.0817756E+0	218.3000031E+0
333.0044013E-3	341.8186862E-3	3.0812964E+0	218.4000092E+0
332.9357871E-3	337.5750386E-3	3.0806629E+0	218.5000000E+0
332.8795849E-3	273.5573183E-3	3.0801439E+0	218.6000061E+0
332.8251939E-3	206.2327244E-3	3.0796417E+0	218.6999969E+0
332.7698123E-3	128.2141932E-3	3.0791303E+0	218.8000031E+0
332.6923989E-3	95.5332976E-3	3.0784155E+0	218.9000092E+0
332.6419848E-3	30.9173240E-3	3.0779500E+0	219.0000000E+0
332.5743756E-3	79.4568920E-3	3.0773257E+0	219.1000061E+0
332.5197723E-3	8.7260957E-3	3.0768215E+0	219.1999969E+0
332.4590205E-3	-79.5717718E-3	3.0762606E+0	219.3000031E+0
332.3728855E-3	28.8790807E-3	3.0754652E+0	219.4000092E+0
332.2889917E-3	115.9874932E-3	3.0746906E+0	219.5000000E+0
332.2103207E-3	128.7465023E-3	3.0739642E+0	219.6000061E+0
332.1598335E-3	59.2008434E-3	3.0734980E+0	219.6999969E+0
332.0924181E-3	11.4363718E-3	3.0728755E+0	219.8000031E+0
332.0298066E-3	-104.0136017E-3	3.0722974E+0	219.9000092E+0
331.9630655E-3	-29.8377195E-3	3.0716811E+0	220.0000000E+0
331.8870213E-3	-92.3421240E-3	3.0709790E+0	220.1000061E+0
331.8428435E-3	-116.0660532E-3	3.0705710E+0	220.1999969E+0
331.7947054E-3	-262.5078156E-3	3.0701266E+0	220.3000031E+0
331.7137546E-3	-281.4093580E-3	3.0693791E+0	220.4000092E+0
331.6651947E-3	-253.3125032E-3	3.0689307E+0	220.5000000E+0
331.5788121E-3	-192.8674704E-3	3.0681331E+0	220.6000061E+0
331.5343343E-3	-323.5543720E-3	3.0677224E+0	220.6999969E+0
331.4916430E-3	-461.9924280E-3	3.0673282E+0	220.8000031E+0
331.4147753E-3	-488.6441705E-3	3.0666184E+0	220.9000092E+0
331.3457606E-3	-545.9695463E-3	3.0659812E+0	221.0000000E+0
331.3596625E-3	-602.6767112E-3	3.0661095E+0	221.1000061E+0
331.2201895E-3	-495.3606406E-3	3.0648217E+0	221.1999969E+0
331.1716871E-3	-735.4371288E-3	3.0643738E+0	221.3000031E+0
331.1351577E-3	-931.0798452E-3	3.0640365E+0	221.4000092E+0
331.0948569E-3	-1.0605015E+0	3.0636644E+0	221.5000000E+0
331.0401508E-3	-1.3185125E+0	3.0631593E+0	221.6000061E+0
331.0048638E-3	-1.5372148E+0	3.0628335E+0	221.6999969E+0
330.9566084E-3	-1.6828083E+0	3.0623879E+0	221.8000031E+0
330.8801687E-3	-1.5242383E+0	3.0616821E+0	221.9000092E+0
330.7749764E-3	-1.1062834E+0	3.0607108E+0	222.0000000E+0
330.6642134E-3	-694.4626542E-3	3.0596880E+0	222.1000061E+0
330.5429835E-3	-455.3499748E-3	3.0585686E+0	222.1999969E+0
330.4447208E-3	-159.9362666E-3	3.0576613E+0	222.3000031E+0
330.3671693E-3	-136.2634721E-3	3.0569452E+0	222.4000092E+0
330.2859141E-3	10.4479887E-3	3.0561950E+0	222.5000000E+0
330.2152334E-3	24.0791997E-3	3.0555423E+0	222.6000061E+0
330.1654328E-3	-63.7712957E-3	3.0550825E+0	222.6999969E+0
330.0657321E-3	107.0591709E-3	3.0541619E+0	222.8000031E+0
329.9676380E-3	245.2058481E-3	3.0532561E+0	222.9000092E+0
329.8940753E-3	377.1331638E-3	3.0525769E+0	223.0000000E+0
329.8435412E-3	269.4249360E-3	3.0521103E+0	223.1000061E+0
329.7540414E-3	283.7834721E-3	3.0512839E+0	223.1999969E+0
329.6878394E-3	323.9404695E-3	3.0506726E+0	223.3000031E+0
329.5456703E-3	756.2851130E-3	3.0493598E+0	223.4000092E+0
329.3499694E-3	1.8321836E+0	3.0475528E+0	223.5000000E+0
329.1551478E-3	2.7874588E+0	3.0457539E+0	223.6000061E+0
329.0779840E-3	2.9295866E+0	3.0450414E+0	223.6999969E+0
329.0497846E-3	2.5107319E+0	3.0447810E+0	223.8000031E+0
329.0641525E-3	2.0094175E+0	3.0449137E+0	223.9000092E+0
329.0561577E-3	1.5209482E+0	3.0448399E+0	224.0000000E+0
329.0252974E-3	1.3071319E+0	3.0445549E+0	224.1000061E+0
328.9650992E-3	1.0792689E+0	3.0439991E+0	224.1999969E+0
328.9100345E-3	943.0734416E-3	3.0434906E+0	224.3000031E+0
328.9115518E-3	654.2380066E-3	3.0435046E+0	224.4000092E+0
328.8552362E-3	488.8383161E-3	3.0429846E+0	224.5000000E+0
328.7584254E-3	496.5677436E-3	3.0420907E+0	224.6000061E+0
328.6943139E-3	429.3029400E-3	3.0414987E+0	224.6999969E+0
328.6144429E-3	385.3569299E-3	3.0407612E+0	224.8000031E+0
328.5779006E-3	387.4825889E-3	3.0404238E+0	224.9000092E+0
328.5114004E-3	441.9411357E-3	3.0398098E+0	225.0000000E+0
328.4749978E-3	257.2354895E-3	3.0394737E+0	225.1000061E+0
328.3890459E-3	222.4579221E-3	3.0386800E+0	225.1999969E+0
328.3400548E-3	166.7945769E-3	3.0382277E+0	225.3000031E+0
328.2719260E-3	129.9705181E-3	3.0375986E+0	225.4000092E+0
328.1886607E-3	145.2449627E-3	3.0368297E+0	225.5000000E+0
328.0867227E-3	296.3777137E-3	3.0358885E+0	225.6000061E+0
328.0744045E-3	191.7052116E-3	3.0357747E+0	225.6999969E+0
327.9960145E-3	214.0093868E-3	3.0350509E+0	225.8000031E+0
327.9552349E-3	56.5399790E-3	3.0346744E+0	225.9000092E+0
327.8891274E-3	-38.1926104E-3	3.0340640E+0	226.0000000E+0
327.8144865E-3	8.2831496E-3	3.0333748E+0	226.1000061E+0
327.7453181E-3	-13.0236773E-3	3.0327361E+0	226.1999969E+0
327.7040681E-3	-222.4625458E-3	3.0323552E+0	226.3000031E+0
327.6569266E-3	-282.4084653E-3	3.0319199E+0	226.4000092E+0
327.5803400E-3	-280.7008918E-3	3.0312127E+0	226.5000000E+0
327.5425927E-3	-400.2094215E-3	3.0308642E+0	226.6000061E+0
327.4646960E-3	-481.6200367E-3	3.0301449E+0	226.6999969E+0
327.3986644E-3	-596.9464268E-3	3.0295352E+0	226.8000031E+0
327.3479839E-3	-652.6926407E-3	3.0290673E+0	226.9000092E+0
327.2827177E-3	-555.1238242E-3	3.0284646E+0	227.0000000E+0
327.1607985E-3	-238.9783195E-3	3.0273389E+0	227.1000061E+0
327.0496377E-3	42.8338328E-3	3.0263124E+0	227.1999969E+0
326.9381054E-3	386.6119009E-3	3.0252826E+0	227.3000031E+0
326.8065400E-3	608.6244724E-3	3.0240678E+0	227.4000092E+0
326.7452731E-3	717.6548482E-3	3.0235021E+0	227.5000000E+0
326.6745513E-3	558.1230500E-3	3.0228490E+0	227.6000061E+0
326.6105255E-3	497.3441641E-3	3.0222579E+0	227.6999969E+0
326.5336764E-3	633.1006826E-3	3.0215483E+0	227.8000031E+0
326.4608019E-3	659.2802364E-3	3.0208754E+0	227.9000092E+0
326.4393599E-3	443.3158161E-3	3.0206774E+0	228.0000000E+0
326.3750239E-3	451.6390762E-3	3.0200833E+0	228.1000061E+0
326.3003757E-3	429.4637562E-3	3.0193941E+0	228.1999969E+0
326.2382993E-3	333.7660220E-3	3.0188209E+0	228.3000031E+0
326.1573200E-3	385.3834747E-3	3.0180731E+0	228.4000092E+0
326.0836489E-3	503.1572465E-3	3.0173929E+0	228.5000000E+0
326.0288127E-3	396.0144030E-3	3.0168865E+0	228.6000061E+0
325.9633576E-3	339.4731506E-3	3.0162822E+0	228.6999969E+0
325.9416704E-3	203.7546351E-3	3.0160819E+0	228.8000031E+0
325.8745187E-3	167.9817106E-3	3.0154619E+0	228.9000092E+0
325.8090536E-3	169.8295907E-3	3.0148574E+0	229.0000000E+0
325.7420103E-3	55.1494109E-3	3.0142383E+0	229.1000061E+0
325.6496927E-3	20.1976002E-3	3.0133859E+0	229.1999969E+0
325.6095147E-3	24.9750217E-3	3.0130149E+0	229.3000031E+0
325.5504450E-3	-6.8886442E-3	3.0124695E+0	229.4000092E+0
325.4847715E-3	-101.6786562E-3	3.0118631E+0	229.5000000E+0
325.4279319E-3	-154.9703338E-3	3.0113382E+0	229.6000061E+0
325.3774179E-3	-283.9394277E-3	3.0108718E+0	229.6999969E+0
325.3124405E-3	-188.7024978E-3	3.0102718E+0	229.8000031E+0
325.2163598E-3	-129.5373714E-3	3.0093847E+0	229.9000092E+0
325.1491892E-3	-253.2655262E-3	3.0087644E+0	230.0000000E+0
325.1008315E-3	-343.6212541E-3	3.0083179E+0	230.1000061E+0
325.0307235E-3	-432.6666827E-3	3.0076706E+0	230.1999969E+0
324.9587227E-3	-458.2047934E-3	3.0070057E+0	230.3000031E+0
324.9266877E-3	-604.8946657E-3	3.0067100E+0	230.4000092E+0
324.8732195E-3	-691.0871696E-3	3.0062162E+0	230.5000000E+0
324.7784472E-3	-463.7599671E-3	3.0053412E+0	230.6000061E+0
324.6384775E-3	-72.3571356E-3	3.0040487E+0	230.6999969E+0
324.5304647E-3	340.6292363E-3	3.0030514E+0	230.8000031E+0
324.4520786E-3	440.3340569E-3	3.0023276E+0	230.9000092E+0
324.3604314E-3	575.4645997E-3	3.0014814E+0	231.0000000E+0
324.3075057E-3	610.9112803E-3	3.0009927E+0	231.1000061E+0
324.2415601E-3	531.2422681E-3	3.0003838E+0	231.1999969E+0
324.1712666E-3	472.7338543E-3	2.9997347E+0	231.3000031E+0
324.0850048E-3	601.9268715E-3	2.9989382E+0	231.4000092E+0
324.0193307E-3	487.1897178E-3	2.9983318E+0	231.5000000E+0
323.9429619E-3	463.8284299E-3	2.9976266E+0	231.6000061E+0
323.8926294E-3	403.0985333E-3	2.9971619E+0	231.6999969E+0
323.8189645E-3	474.8409974E-3	2.9964817E+0	231.8000031E+0
323.7468526E-3	496.5769461E-3	2.9958158E+0	231.9000092E+0
323.6975447E-3	432.5477691E-3	2.9953605E+0	232.0000000E+0
323.6483171E-3	423.2376716E-3	2.9949060E+0	232.1000061E+0
323.5629950E-3	452.2633532E-3	2.9941181E+0	232.1999969E+0
323.5160803E-3	404.8985699E-3	2.9936850E+0	232.3000031E+0
323.4533800E-3	255.0527406E-3	2.9931060E+0	232.4000092E+0
323.3696644E-3	156.9150734E-3	2.9923330E+0	232.5000000E+0
323.2998435E-3	167.6499111E-3	2.9916883E+0	232.6000061E+0
323.2336069E-3	201.8727048E-3	2.9910767E+0	232.6999969E+0
323.1521148E-3	375.8526178E-3	2.9903242E+0	232.8000031E+0
323.0769901E-3	315.5993358E-3	2.9896306E+0	232.9000092E+0
323.0014475E-3	275.4541665E-3	2.9889330E+0	233.0000000E+0
322.9246592E-3	244.0942221E-3	2.9882240E+0	233.1000061E+0
322.9145309E-3	14.8482845E-3	2.9881305E+0	233.1999969E+0
322.8143665E-3	16.6450713E-3	2.9872056E+0	233.3000031E+0
322.7512360E-3	34.3011960E-3	2.9866227E+0	233.4000092E+0
322.6973439E-3	1.7391174E-3	2.9861251E+0	233.5000000E+0
322.6103708E-3	37.4942457E-3	2.9853220E+0	233.6000061E+0
322.5485051E-3	71.9922159E-3	2.9847507E+0	233.6999969E+0
322.4923308E-3	33.2365262E-3	2.9842320E+0	233.8000031E+0
322.4341075E-3	-129.1235286E-3	2.9836944E+0	233.9000092E+0
322.3596146E-3	-66.7350679E-3	2.9830066E+0	234.0000000E+0
322.3169937E-3	-153.5797657E-3	2.9826131E+0	234.1000061E+0
322.2291654E-3	-46.5372672E-3	2.9818021E+0	234.1999969E+0
322.1719560E-3	-146.1680606E-3	2.9812738E+0	234.3000031E+0
322.1014966E-3	-196.2156312E-3	2.9806232E+0	234.4000092E+0
322.0518009E-3	-310.8660475E-3	2.9801644E+0	234.5000000E+0
321.9898643E-3	-432.8307229E-3	2.9795925E+0	234.6000061E+0
321.9097899E-3	-461.5670357E-3	2.9788531E+0	234.6999969E+0
321.8639663E-3	-528.5970320E-3	2.9784300E+0	234.8000031E+0
321.8199393E-3	-750.6734946E-3	2.9780234E+0	234.9000092E+0
321.7439476E-3	-812.1694450E-3	2.9773218E+0	235.0000000E+0
321.7316339E-3	-1.1191465E+0	2.9772081E+0	235.1000061E+0
321.6767535E-3	-1.2161110E+0	2.9767013E+0	235.1999969E+0
321.6603706E-3	-1.5788180E+0	2.9765501E+0	235.3000031E+0
321.6263311E-3	-1.8809087E+0	2.9762357E+0	235.4000092E+0
321.5858923E-3	-2.1441512E+0	2.9758623E+0	235.5000000E+0
321.5088374E-3	-2.1217343E+0	2.9751509E+0	235.6000061E+0
321.4009788E-3	-1.7100115E+0	2.9741549E+0	235.6999969E+0
321.2498630E-3	-1.0757643E+0	2.9727596E+0	235.8000031E+0
321.1103754E-3	-607.4011980E-3	2.9714716E+0	235.9000092E+0
321.0029419E-3	-298.5601671E-3	2.9704796E+0	236.0000000E+0
320.9103634E-3	-108.3880903E-3	2.9696248E+0	236.1000061E+0
320.8640856E-3	56.1702606E-3	2.9691975E+0	236.1999969E+0
320.7512477E-3	136.5861995E-3	2.9681556E+0	236.3000031E+0
320.6549548E-3	280.7291918E-3	2.9672664E+0	236.4000092E+0
320.5712370E-3	357.4442895E-3	2.9664934E+0	236.5000000E+0
320.5116974E-3	292.0545711E-3	2.9659437E+0	236.6000061E+0
320.4587041E-3	205.7699496E-3	2.9654543E+0	236.6999969E+0
320.3457460E-3	552.0178113E-3	2.9644113E+0	236.8000031E+0
320.1281714E-3	1.5651568E+0	2.9624023E+0	236.9000092E+0
319.9302940E-3	2.7018697E+0	2.9605752E+0	237.0000000E+0
319.8084797E-3	3.0143553E+0	2.9594504E+0	237.1000061E+0
319.7773022E-3	2.7353246E+0	2.9591625E+0	237.1999969E+0
319.7774111E-3	2.2537218E+0	2.9591635E+0	237.3000031E+0
319.7568540E-3	1.8369432E+0	2.9589737E+0	237.4000092E+0
319.7320724E-3	1.4652272E+0	2.9587449E+0	237.5000000E+0
319.7067187E-3	1.1516332E+0	2.9585108E+0	237.6000061E+0
319.6585550E-3	907.4620296E-3	2.9580661E+0	237.6999969E+0
319.6245618E-3	747.6177611E-3	2.9577522E+0	237.8000031E+0
319.5738411E-3	617.0292599E-3	2.9572839E+0	237.9000092E+0
319.4843547E-3	668.1011003E-3	2.9564576E+0	238.0000000E+0
319.4384272E-3	555.9669758E-3	2.9560335E+0	238.1000061E+0
319.3602341E-3	397.2070240E-3	2.9553115E+0	238.1999969E+0
319.3194174E-3	344.5735871E-3	2.9549346E+0	238.3000031E+0
319.2426983E-3	399.6297087E-3	2.9542262E+0	238.4000092E+0
319.1755768E-3	339.8060746E-3	2.9536064E+0	238.5000000E+0
319.1163110E-3	268.1457157E-3	2.9530592E+0	238.6000061E+0
319.0322636E-3	226.6712232E-3	2.9522831E+0	238.6999969E+0
318.9943918E-3	233.3656517E-3	2.9519334E+0	238.8000031E+0
318.9118974E-3	193.7077076E-3	2.9511717E+0	238.9000092E+0
318.8580494E-3	107.3449477E-3	2.9506745E+0	239.0000000E+0
318.8038583E-3	25.4198867E-3	2.9501741E+0	239.1000061E+0
318.6971443E-3	156.8316012E-3	2.9491888E+0	239.1999969E+0
318.6236872E-3	177.5353261E-3	2.9485105E+0	239.3000031E+0
318.5636566E-3	107.9524189E-3	2.9479562E+0	239.4000092E+0
318.5084813E-3	69.6463760E-3	2.9474467E+0	239.5000000E+0
318.4682295E-3	-84.7254236E-3	2.9470751E+0	239.6000061E+0
318.3983416E-3	-71.6063926E-3	2.9464297E+0	239.6999969E+0
318.3165573E-3	-57.3073456E-3	2.9456746E+0	239.8000031E+0
318.2594820E-3	-55.6577993E-3	2.9451476E+0	239.9000092E+0
318.2336937E-3	-306.2673261E-3	2.9449095E+0	240.0000000E+0
318.1818970E-3	-362.7201904E-3	2.9444312E+0	240.1000061E+0
318.0847080E-3	-499.3001424E-3	2.9435338E+0	240.1999969E+0
318.0375179E-3	-664.7066420E-3	2.9430980E+0	240.3000031E+0
318.0149508E-3	-859.8115764E-3	2.9428897E+0	240.4000092E+0
317.9561828E-3	-994.1390131E-3	2.9423470E+0	240.5000000E+0
317.8310675E-3	-528.9736935E-3	2.9411918E+0	240.6000061E+0
317.6687469E-3	18.7856817E-3	2.9396930E+0	240.6999969E+0
317.5780505E-3	435.8937221E-3	2.9388555E+0	240.8000031E+0
317.4506095E-3	671.3686570E-3	2.9376788E+0	240.9000092E+0
317.3894566E-3	768.6562618E-3	2.9371141E+0	241.0000000E+0
317.3402387E-3	787.6309854E-3	2.9366596E+0	241.1000061E+0
317.2531668E-3	772.7199144E-3	2.9358556E+0	241.1999969E+0
317.1854168E-3	786.6099965E-3	2.9352301E+0	241.3000031E+0
317.1108390E-3	716.4560154E-3	2.9345414E+0	241.4000092E+0
317.0346115E-3	705.1998152E-3	2.9338376E+0	241.5000000E+0
316.9858836E-3	522.5597852E-3	2.9333877E+0	241.6000061E+0
316.9020222E-3	603.1469721E-3	2.9326133E+0	241.6999969E+0
316.8296326E-3	643.6751013E-3	2.9319449E+0	241.8000031E+0
316.7620586E-3	544.1048668E-3	2.9313209E+0	241.9000092E+0
316.7322704E-3	398.3862615E-3	2.9310459E+0	242.0000000E+0
316.6681589E-3	377.5408733E-3	2.9304539E+0	242.1000061E+0
316.6210884E-3	350.9436957E-3	2.9300193E+0	242.1999969E+0
316.5641812E-3	270.2321997E-3	2.9294938E+0	242.3000031E+0
316.4908827E-3	190.2005773E-3	2.9288170E+0	242.4000092E+0
316.3851224E-3	219.0138369E-3	2.9278405E+0	242.5000000E+0
316.3242002E-3	161.7298413E-3	2.9272779E+0	242.6000061E+0
316.3079430E-3	32.1334785E-3	2.9271278E+0	242.6999969E+0
316.2170577E-3	-12.8125983E-3	2.9262886E+0	242.8000031E+0
316.1568841E-3	91.1238199E-3	2.9257330E+0	242.9000092E+0
316.0541986E-3	58.2970415E-3	2.9247848E+0	243.0000000E+0
315.9686272E-3	-13.6422750E-3	2.9239947E+0	243.1000061E+0
315.9671842E-3	-130.7941426E-3	2.9239814E+0	243.1999969E+0
315.8893305E-3	-242.4093129E-3	2.9232625E+0	243.3000031E+0
315.8395584E-3	-451.5387194E-3	2.9228029E+0	243.4000092E+0
315.7925476E-3	-595.7131466E-3	2.9223689E+0	243.5000000E+0
315.7435123E-3	-662.4395905E-3	2.9219161E+0	243.6000061E+0
315.6944329E-3	-739.0308882E-3	2.9214629E+0	243.6999969E+0
315.5945053E-3	-488.4878273E-3	2.9205402E+0	243.8000031E+0
315.4635137E-3	-84.3949271E-3	2.9193307E+0	243.9000092E+0
315.3692598E-3	258.7287084E-3	2.9184604E+0	244.0000000E+0
315.2246628E-3	649.0397063E-3	2.9171252E+0	244.1000061E+0
315.1166668E-3	949.8871927E-3	2.9161280E+0	244.1999969E+0
315.0838669E-3	824.3107605E-3	2.9158252E+0	244.3000031E+0
315.0185431E-3	703.3724027E-3	2.9152220E+0	244.4000092E+0
314.9270372E-3	746.0654638E-3	2.9143771E+0	244.5000000E+0
314.8665726E-3	634.0891483E-3	2.9138188E+0	244.6000061E+0
314.8062236E-3	627.6650783E-3	2.9132615E+0	244.6999969E+0
314.7481387E-3	449.3503288E-3	2.9127252E+0	244.8000031E+0
314.6620556E-3	509.9366689E-3	2.9119303E+0	244.9000092E+0
314.5896784E-3	449.5524529E-3	2.9112620E+0	245.0000000E+0
314.5331522E-3	309.5907593E-3	2.9107401E+0	245.1000061E+0
314.4531393E-3	365.7660537E-3	2.9100013E+0	245.1999969E+0
314.3899647E-3	360.5817273E-3	2.9094180E+0	245.3000031E+0
314.3123468E-3	446.2481070E-3	2.9087013E+0	245.4000092E+0
314.2490095E-3	489.1655659E-3	2.9081164E+0	245.5000000E+0
314.1789015E-3	410.7750931E-3	2.9074691E+0	245.6000061E+0
314.1181765E-3	280.5504453E-3	2.9069084E+0	245.6999969E+0
314.0832979E-3	110.1361272E-3	2.9065863E+0	245.8000031E+0
314.0003935E-3	156.5672882E-3	2.9058208E+0	245.9000092E+0
313.9191639E-3	117.0054800E-3	2.9050708E+0	246.0000000E+0
313.8558770E-3	189.9885956E-3	2.9044864E+0	246.1000061E+0
313.7985866E-3	177.6718156E-3	2.9039574E+0	246.1999969E+0
313.7270651E-3	114.7133435E-3	2.9032970E+0	246.3000031E+0
313.6703015E-3	21.3035882E-3	2.9027729E+0	246.4000092E+0
313.5931272E-3	12.5511032E-3	2.9020603E+0	246.5000000E+0
313.5317396E-3	20.9659391E-3	2.9014934E+0	246.6000061E+0
313.4603322E-3	-76.7250835E-3	2.9008341E+0	246.6999969E+0
313.3931727E-3	-78.2723566E-3	2.9002140E+0	246.8000031E+0
313.3180720E-3	-67.3300971E-3	2.8995205E+0	246.9000092E+0
313.2563599E-3	-90.8539448E-3	2.8989507E+0	247.0000000E+0
313.2103760E-3	-181.7531495E-3	2.8985261E+0	247.1000061E+0
313.1211058E-3	-178.8882833E-3	2.8977018E+0	247.1999969E+0
313.0535480E-3	-304.4630648E-3	2.8970780E+0	247.3000031E+0
313.0138130E-3	-357.2019599E-3	2.8967111E+0	247.4000092E+0
312.9383655E-3	-478.5584316E-3	2.8960145E+0	247.5000000E+0
312.8615604E-3	-399.0831148E-3	2.8953053E+0	247.6000061E+0
312.8017605E-3	-452.4840975E-3	2.8947531E+0	247.6999969E+0
312.7585804E-3	-655.8367740E-3	2.8943544E+0	247.8000031E+0
312.7213354E-3	-913.7937537E-3	2.8940105E+0	247.9000092E+0
312.6688689E-3	-1.1683630E+0	2.8935260E+0	248.0000000E+0
312.5963005E-3	-1.2972578E+0	2.8928560E+0	248.1000061E+0
312.5752259E-3	-1.5209136E+0	2.8926614E+0	248.1999969E+0
312.5287930E-3	-1.8649337E+0	2.8922326E+0	248.3000031E+0
312.5369325E-3	-2.3580251E+0	2.8923078E+0	248.4000092E+0
312.4857855E-3	-2.6479170E+0	2.8918355E+0	248.5000000E+0
312.4709685E-3	-2.8220201E+0	2.8916987E+0	248.6000061E+0
312.3338608E-3	-2.3142806E+0	2.8904327E+0	248.6999969E+0
312.1548612E-3	-1.4055269E+0	2.8887799E+0	248.8000031E+0
311.9687388E-3	-593.2036896E-3	2.8870613E+0	248.9000092E+0
311.8310568E-3	-105.2907535E-3	2.8857900E+0	249.0000000E+0
311.7015087E-3	432.1441914E-3	2.8845938E+0	249.1000061E+0
311.5874384E-3	790.7505031E-3	2.8835405E+0	249.1999969E+0
311.5120127E-3	701.8614687E-3	2.8828441E+0	249.3000031E+0
311.4784996E-3	509.7255524E-3	2.8825346E+0	249.4000092E+0
311.4119851E-3	465.8234463E-3	2.8819205E+0	249.5000000E+0
311.2674122E-3	889.6131020E-3	2.8805855E+0	249.6000061E+0
311.0460542E-3	2.2042654E+0	2.8785416E+0	249.6999969E+0
310.7960505E-3	3.4867168E+0	2.8762332E+0	249.8000031E+0
310.7211186E-3	3.5817965E+0	2.8755413E+0	249.9000092E+0
310.6971509E-3	3.0932378E+0	2.8753200E+0	250.0000000E+0
310.7111227E-3	2.5398212E+0	2.8754490E+0	250.1000061E+0
310.7200627E-3	2.0101991E+0	2.8755315E+0	250.1999969E+0
310.6652991E-3	1.8344425E+0	2.8750258E+0	250.3000031E+0
310.6468380E-3	1.4465036E+0	2.8748554E+0	250.4000092E+0
310.6099382E-3	1.1302288E+0	2.8745147E+0	250.5000000E+0
310.5983128E-3	909.9771763E-3	2.8744073E+0	250.6000061E+0
310.5213166E-3	734.7799998E-3	2.8736964E+0	250.6999969E+0
310.4631407E-3	602.1538537E-3	2.8731592E+0	250.8000031E+0
310.4031688E-3	483.8012034E-3	2.8726054E+0	250.9000092E+0
310.3549519E-3	427.6224478E-3	2.8721602E+0	251.0000000E+0
310.3043558E-3	466.1100021E-3	2.8716930E+0	251.1000061E+0
310.2046730E-3	537.4793330E-3	2.8707726E+0	251.1999969E+0
310.1474786E-3	524.9261414E-3	2.8702445E+0	251.3000031E+0
310.0604067E-3	419.8061487E-3	2.8694405E+0	251.4000092E+0
309.9604535E-3	460.6865508E-3	2.8685176E+0	251.5000000E+0
309.9087523E-3	567.7234009E-3	2.8680402E+0	251.6000061E+0
309.8417208E-3	476.3633248E-3	2.8674212E+0	251.6999969E+0
309.7934190E-3	381.2472134E-3	2.8669752E+0	251.8000031E+0
309.7014682E-3	440.5250424E-3	2.8661262E+0	251.9000092E+0
309.6122870E-3	514.1991690E-3	2.8653027E+0	252.0000000E+0
309.5862792E-3	206.1927473E-3	2.8650626E+0	252.1000061E+0
309.5002464E-3	254.5277564E-3	2.8642682E+0	252.1999969E+0
309.4253250E-3	348.8648873E-3	2.8635764E+0	252.3000031E+0
309.3744099E-3	257.3723710E-3	2.8631063E+0	252.4000092E+0
309.3363090E-3	53.6350273E-3	2.8627545E+0	252.5000000E+0
309.2726416E-3	114.3494592E-3	2.8621666E+0	252.6000061E+0
309.2098536E-3	4.0529343E-3	2.8615868E+0	252.6999969E+0
309.1256682E-3	578.9565938E-6	2.8608095E+0	252.8000031E+0
309.0306808E-3	-14.1104144E-3	2.8599324E+0	252.9000092E+0
309.0347600E-3	-205.6537619E-3	2.8599701E+0	253.0000000E+0
308.9720071E-3	-268.0167147E-3	2.8593906E+0	253.1000061E+0
308.9010198E-3	-364.0586077E-3	2.8587352E+0	253.1999969E+0
308.8290984E-3	-427.2710297E-3	2.8580711E+0	253.3000031E+0
308.7370825E-3	-374.2459245E-3	2.8572214E+0	253.4000092E+0
308.5985948E-3	38.4054034E-3	2.8559427E+0	253.5000000E+0
308.4662585E-3	454.5157550E-3	2.8547208E+0	253.6000061E+0
308.3562457E-3	728.2355910E-3	2.8537049E+0	253.6999969E+0
308.2928962E-3	759.7292188E-3	2.8531200E+0	253.8000031E+0
308.2263004E-3	722.4391304E-3	2.8525051E+0	253.9000092E+0
308.1476400E-3	723.8586212E-3	2.8517788E+0	254.0000000E+0
308.0709132E-3	711.9930613E-3	2.8510703E+0	254.1000061E+0
308.0070720E-3	671.0989277E-3	2.8504808E+0	254.1999969E+0
307.9460845E-3	697.9291228E-3	2.8499177E+0	254.3000031E+0
307.8770546E-3	666.4163060E-3	2.8492803E+0	254.4000092E+0
307.8132191E-3	487.2514631E-3	2.8486909E+0	254.5000000E+0
307.7972055E-3	370.5275876E-3	2.8485430E+0	254.6000061E+0
307.6908161E-3	344.2614460E-3	2.8475606E+0	254.6999969E+0
307.6312073E-3	383.2477389E-3	2.8470102E+0	254.8000031E+0
307.5922070E-3	291.3947893E-3	2.8466501E+0	254.9000092E+0
307.5052231E-3	190.3963880E-3	2.8458469E+0	255.0000000E+0
307.4404660E-3	243.1453260E-3	2.8452490E+0	255.1000061E+0
307.3728216E-3	72.8873982E-3	2.8446244E+0	255.1999969E+0
307.2989880E-3	53.6093543E-3	2.8439426E+0	255.3000031E+0
307.2358837E-3	87.1415761E-3	2.8433600E+0	255.4000092E+0
307.1565189E-3	70.4072199E-3	2.8426271E+0	255.5000000E+0
307.1154119E-3	-83.8206292E-3	2.8422476E+0	255.6000061E+0
307.0840534E-3	-177.2801935E-3	2.8419580E+0	255.6999969E+0
306.9914430E-3	-259.0727214E-3	2.8411029E+0	255.8000031E+0
306.9376531E-3	-238.7026376E-3	2.8406062E+0	255.9000092E+0
306.8386049E-3	-94.5961507E-3	2.8396916E+0	256.0000000E+0
306.7973074E-3	-322.5975888E-3	2.8393103E+0	256.1000061E+0
306.7507235E-3	-511.6336612E-3	2.8388802E+0	256.2000122E+0
306.6768083E-3	-508.9717187E-3	2.8381977E+0	256.3000183E+0
306.5881587E-3	-187.5360799E-3	2.8373791E+0	256.3999939E+0
306.4605402E-3	146.1174226E-3	2.8362007E+0	256.5000000E+0
306.3336652E-3	506.6160742E-3	2.8350292E+0	256.6000061E+0
306.2169441E-3	676.3814739E-3	2.8339515E+0	256.7000122E+0
306.1539957E-3	800.6011458E-3	2.8333702E+0	256.8000183E+0
306.0793001E-3	745.3739273E-3	2.8326805E+0	256.8999939E+0
306.0356239E-3	615.6313361E-3	2.8322772E+0	257.0000000E+0
305.9724258E-3	590.4446789E-3	2.8316937E+0	257.1000061E+0
305.9534910E-3	375.7934827E-3	2.8315188E+0	257.2000122E+0
305.8196675E-3	595.5945012E-3	2.8302832E+0	257.3000183E+0
305.7438144E-3	600.7518650E-3	2.8295828E+0	257.3999939E+0
305.6610575E-3	618.6778582E-3	2.8288186E+0	257.5000000E+0
305.6029860E-3	470.6871617E-3	2.8282824E+0	257.6000061E+0
305.5598515E-3	358.1443233E-3	2.8278841E+0	257.7000122E+0
305.4662329E-3	281.1509561E-3	2.8270197E+0	257.8000183E+0
305.4014014E-3	302.6427419E-3	2.8264211E+0	257.8999939E+0
305.3175915E-3	374.9391234E-3	2.8256472E+0	258.0000000E+0
305.2749449E-3	190.9573203E-3	2.8252534E+0	258.1000061E+0
305.2394775E-3	55.1769099E-3	2.8249259E+0	258.2000122E+0
305.1629807E-3	-23.5211904E-3	2.8242196E+0	258.3000183E+0
305.0931397E-3	18.4501218E-3	2.8235747E+0	258.3999939E+0
305.0075605E-3	79.6593514E-3	2.8227845E+0	258.5000000E+0
304.9269644E-3	81.5689046E-3	2.8220403E+0	258.6000061E+0
304.8825866E-3	21.0556683E-3	2.8216305E+0	258.7000122E+0
304.7846015E-3	102.9675343E-3	2.8207258E+0	258.8000183E+0
304.7136488E-3	86.8091267E-3	2.8200706E+0	258.8999939E+0
304.6505937E-3	-8.8964431E-3	2.8194884E+0	259.0000000E+0
304.5928899E-3	-235.2802793E-3	2.8189556E+0	259.1000061E+0
304.5396809E-3	-230.3960596E-3	2.8184643E+0	259.2000122E+0
304.4627803E-3	-282.3988863E-3	2.8177542E+0	259.3000183E+0
304.3695906E-3	-277.7026826E-3	2.8168937E+0	259.3999939E+0
304.3371019E-3	-269.4715607E-3	2.8165937E+0	259.5000000E+0
304.2561869E-3	-319.8584311E-3	2.8158466E+0	259.6000061E+0
304.2080823E-3	-411.6115258E-3	2.8154024E+0	259.7000122E+0
304.1431764E-3	-578.7484760E-3	2.8148031E+0	259.8000183E+0
304.1052822E-3	-663.8052077E-3	2.8144532E+0	259.8999939E+0
303.9844479E-3	-741.8960072E-3	2.8133375E+0	260.0000000E+0
303.9442934E-3	-680.3253383E-3	2.8129667E+0	260.1000061E+0
303.8741206E-3	-891.1318635E-3	2.8123187E+0	260.2000122E+0
303.8629202E-3	-1.0338516E+0	2.8122153E+0	260.3000183E+0
303.7649027E-3	-1.2750029E+0	2.8113103E+0	260.3999939E+0
303.8106325E-3	-1.5534633E+0	2.8117325E+0	260.5000000E+0
303.7795438E-3	-2.1458147E+0	2.8114455E+0	260.6000061E+0
303.7518203E-3	-2.6542137E+0	2.8111895E+0	260.7000122E+0
303.9022328E-3	-3.6211954E+0	2.8125783E+0	260.8000183E+0
303.7764813E-3	-4.4573271E+0	2.8114172E+0	260.8999939E+0
303.6625563E-3	-4.5681632E+0	2.8103652E+0	261.0000000E+0
303.6701583E-3	-3.0805342E+0	2.8104354E+0	261.1000061E+0
303.1095276E-3	-950.8445161E-3	2.8052588E+0	261.2000122E+0
302.8804095E-3	631.3129074E-3	2.8031432E+0	261.3000183E+0
302.7099740E-3	1.5038195E+0	2.8015695E+0	261.3999939E+0
302.5859123E-3	1.6262746E+0	2.8004239E+0	261.5000000E+0
302.5654977E-3	1.4198711E+0	2.8002354E+0	261.6000061E+0
302.4827916E-3	1.3940582E+0	2.7994718E+0	261.7000122E+0
302.3423105E-3	2.0071408E+0	2.7981746E+0	261.8000183E+0
302.0383869E-3	3.4714440E+0	2.7953683E+0	261.8999939E+0
301.8328845E-3	4.6000429E+0	2.7934708E+0	262.0000000E+0
301.7981338E-3	4.4545553E+0	2.7931499E+0	262.1000061E+0
301.8031097E-3	3.7850085E+0	2.7931958E+0	262.2000122E+0
301.8493261E-3	3.0693749E+0	2.7936226E+0	262.3000183E+0
301.8250361E-3	2.4582509E+0	2.7933983E+0	262.3999939E+0
301.7991037E-3	2.1418749E+0	2.7931589E+0	262.5000000E+0
301.7819928E-3	1.7766552E+0	2.7930009E+0	262.6000061E+0
301.7534532E-3	1.4288241E+0	2.7927373E+0	262.7000122E+0
301.6804207E-3	1.3304732E+0	2.7920630E+0	262.8000183E+0
301.6415785E-3	1.1588595E+0	2.7917043E+0	262.8999939E+0
301.5733229E-3	1.0563519E+0	2.7910741E+0	263.0000000E+0
301.5152951E-3	1.0377954E+0	2.7905383E+0	263.1000061E+0
301.4617906E-3	993.9079831E-3	2.7900442E+0	263.2000122E+0
301.3949909E-3	841.0049643E-3	2.7894274E+0	263.3000183E+0
301.3619955E-3	730.2929717E-3	2.7891228E+0	263.3999939E+0
301.2658109E-3	736.7216068E-3	2.7882346E+0	263.5000000E+0
301.2185946E-3	541.1495441E-3	2.7877987E+0	263.6000061E+0
301.1668582E-3	509.8719989E-3	2.7873209E+0	263.7000122E+0
301.1175682E-3	552.9236003E-3	2.7868658E+0	263.8000183E+0
300.9879251E-3	546.7962325E-3	2.7856687E+0	263.8999939E+0
300.9522756E-3	448.8270674E-3	2.7853396E+0	264.0000000E+0
300.8692159E-3	424.9115062E-3	2.7845726E+0	264.1000061E+0
300.8254816E-3	483.2208341E-3	2.7841688E+0	264.2000122E+0
300.7194603E-3	522.9116832E-3	2.7831898E+0	264.3000183E+0
300.6718435E-3	364.8665228E-3	2.7827502E+0	264.3999939E+0
300.6190848E-3	287.7603925E-3	2.7822630E+0	264.5000000E+0
300.5712567E-3	343.9543807E-3	2.7818214E+0	264.6000061E+0
300.5054777E-3	271.0377870E-3	2.7812140E+0	264.7000122E+0
300.3767010E-3	240.3421328E-3	2.7800249E+0	264.8000183E+0
300.2593884E-3	304.0675252E-3	2.7789417E+0	264.8999939E+0
300.2267701E-3	298.5004505E-3	2.7786405E+0	265.0000000E+0
300.1536705E-3	267.6755955E-3	2.7779656E+0	265.1000061E+0
300.0964600E-3	216.2161219E-3	2.7774373E+0	265.2000122E+0
300.0154606E-3	244.7905300E-3	2.7766894E+0	265.3000183E+0
299.9356498E-3	279.2946201E-3	2.7759524E+0	265.3999939E+0
299.8632431E-3	285.6327398E-3	2.7752839E+0	265.5000000E+0
299.8350520E-3	134.4637877E-3	2.7750236E+0	265.6000061E+0
299.7241560E-3	117.0723113E-3	2.7739996E+0	265.7000122E+0
299.6649556E-3	41.8176359E-3	2.7734530E+0	265.8000183E+0
299.5798272E-3	188.2452748E-3	2.7726669E+0	265.8999939E+0
299.4872219E-3	316.7819199E-3	2.7718118E+0	266.0000000E+0
299.4102157E-3	277.1733152E-3	2.7711008E+0	266.1000061E+0
299.3475572E-3	373.5387442E-3	2.7705222E+0	266.2000122E+0
299.2920355E-3	277.1402400E-3	2.7700096E+0	266.3000183E+0
299.2219587E-3	262.4538970E-3	2.7693625E+0	266.3999939E+0
299.1276870E-3	274.1256480E-3	2.7684920E+0	266.5000000E+0
299.0816371E-3	277.4722923E-3	2.7680668E+0	266.6000061E+0
299.0008148E-3	240.3146285E-3	2.7673205E+0	266.7000122E+0
298.9287369E-3	128.3365746E-3	2.7666550E+0	266.8000183E+0
298.8698700E-3	110.4946056E-3	2.7661114E+0	266.8999939E+0
298.7914208E-3	171.6233806E-3	2.7653871E+0	267.0000000E+0
298.7110359E-3	245.5285483E-3	2.7646448E+0	267.1000061E+0
298.6409106E-3	172.2499634E-3	2.7639973E+0	267.2000122E+0
298.5837263E-3	132.5402451E-3	2.7634693E+0	267.3000183E+0
298.5057447E-3	206.7853521E-3	2.7627493E+0	267.3999939E+0
298.4315697E-3	313.2091652E-3	2.7620644E+0	267.5000000E+0
298.3728491E-3	278.9398794E-3	2.7615222E+0	267.6000061E+0
298.3126984E-3	144.7514856E-3	2.7609667E+0	267.7000122E+0
298.2013801E-3	232.8873452E-3	2.7599389E+0	267.8000183E+0
298.1686467E-3	269.9689906E-3	2.7596366E+0	267.8999939E+0
298.0849205E-3	202.3094713E-3	2.7588635E+0	268.0000000E+0
298.0230833E-3	282.5623759E-3	2.7582926E+0	268.1000061E+0
297.9322204E-3	277.1901314E-3	2.7574536E+0	268.2000122E+0
297.8563303E-3	229.9749192E-3	2.7567528E+0	268.3000183E+0
297.7862290E-3	148.1565738E-3	2.7561055E+0	268.3999939E+0
297.6907371E-3	201.8790599E-3	2.7552238E+0	268.5000000E+0
297.6189766E-3	244.0167645E-3	2.7545612E+0	268.6000061E+0
297.5123956E-3	349.7731666E-3	2.7535771E+0	268.7000122E+0
297.4411021E-3	290.2798825E-3	2.7529188E+0	268.8000183E+0
297.3886060E-3	224.7600245E-3	2.7524340E+0	268.8999939E+0
297.3390021E-3	112.2062490E-3	2.7519760E+0	269.0000000E+0
297.2541139E-3	142.8354638E-3	2.7511922E+0	269.1000061E+0
297.1672867E-3	247.4767735E-3	2.7503905E+0	269.2000122E+0
297.0991518E-3	307.3370111E-3	2.7497613E+0	269.3000183E+0
297.0108106E-3	409.9919033E-3	2.7489456E+0	269.3999939E+0
296.9727645E-3	322.6766984E-3	2.7485943E+0	269.5000000E+0
296.9107658E-3	196.6887550E-3	2.7480218E+0	269.6000061E+0
296.8435297E-3	212.2605312E-3	2.7474010E+0	269.7000122E+0
296.7996418E-3	138.9048962E-3	2.7469958E+0	269.8000183E+0
296.7168380E-3	233.0276055E-3	2.7462312E+0	269.8999939E+0
296.6409485E-3	241.0334939E-3	2.7455305E+0	270.0000000E+0
296.5819648E-3	97.5862008E-3	2.7449858E+0	270.1000061E+0
296.4593786E-3	150.5474511E-3	2.7438539E+0	270.2000122E+0
296.3994670E-3	225.9855620E-3	2.7433007E+0	270.3000183E+0
296.3463681E-3	190.5327017E-3	2.7428104E+0	270.3999939E+0
296.2632084E-3	190.0407257E-3	2.7420426E+0	270.5000000E+0
296.1978109E-3	137.8003061E-3	2.7414387E+0	270.6000061E+0
296.1183762E-3	167.5959653E-3	2.7407052E+0	270.7000122E+0
296.0357528E-3	109.5387096E-3	2.7399423E+0	270.8000183E+0
295.9675542E-3	53.1032186E-3	2.7393126E+0	270.8999939E+0
295.8719423E-3	224.4324703E-3	2.7384298E+0	271.0000000E+0
295.7993354E-3	259.6321389E-3	2.7377593E+0	271.1000061E+0
295.7522906E-3	225.9484633E-3	2.7373249E+0	271.2000122E+0
295.6372293E-3	319.6723405E-3	2.7362625E+0	271.3000183E+0
295.5527255E-3	339.4001808E-3	2.7354822E+0	271.3999939E+0
295.4959915E-3	390.9980887E-3	2.7349584E+0	271.5000000E+0
295.4330838E-3	239.8310657E-3	2.7343775E+0	271.6000061E+0
295.3197544E-3	304.8737831E-3	2.7333311E+0	271.7000122E+0
295.2825898E-3	310.7542524E-3	2.7329879E+0	271.8000183E+0
295.1962022E-3	307.1967819E-3	2.7321902E+0	271.8999939E+0
295.1503082E-3	138.0973333E-3	2.7317665E+0	272.0000000E+0
295.0947233E-3	125.6766593E-3	2.7312532E+0	272.1000061E+0
294.9741935E-3	397.9701026E-3	2.7301403E+0	272.2000122E+0
294.8853478E-3	483.0212685E-3	2.7293199E+0	272.3000183E+0
294.8304495E-3	488.9442734E-3	2.7288130E+0	272.3999939E+0
294.7274779E-3	397.1524655E-3	2.7278622E+0	272.5000000E+0
294.6547655E-3	330.8822608E-3	2.7271908E+0	272.6000061E+0
294.5763163E-3	381.1890429E-3	2.7264664E+0	272.7000122E+0
294.5101345E-3	327.6946221E-3	2.7258554E+0	272.8000183E+0
294.4195609E-3	396.8594567E-3	2.7250190E+0	272.8999939E+0
294.3355135E-3	509.7384341E-3	2.7242430E+0	273.0000000E+0
294.2866632E-3	421.7228514E-3	2.7237919E+0	273.1000061E+0
294.2325950E-3	260.3796072E-3	2.7232927E+0	273.2000122E+0
294.1426461E-3	324.5926943E-3	2.7224621E+0	273.3000183E+0
294.0851489E-3	196.9506849E-3	2.7219312E+0	273.3999939E+0
294.0071483E-3	309.7010960E-3	2.7212110E+0	273.5000000E+0
293.9307734E-3	246.9373150E-3	2.7205058E+0	273.6000061E+0
293.8711534E-3	249.1650187E-3	2.7199552E+0	273.7000122E+0
293.8309137E-3	304.2075500E-3	2.7195837E+0	273.8000183E+0
293.7203974E-3	300.2143634E-3	2.7185632E+0	273.8999939E+0
293.6640773E-3	282.4204134E-3	2.7180432E+0	274.0000000E+0
293.5787903E-3	334.2402276E-3	2.7172557E+0	274.1000061E+0
293.4745483E-3	371.7244241E-3	2.7162932E+0	274.2000122E+0
293.4107139E-3	316.5681998E-3	2.7157037E+0	274.3000183E+0
293.3688181E-3	265.8456612E-3	2.7153169E+0	274.3999939E+0
293.2594232E-3	330.9820178E-3	2.7143068E+0	274.5000000E+0
293.1881632E-3	216.8712767E-3	2.7136488E+0	274.6000061E+0
293.1477909E-3	171.3567154E-3	2.7132760E+0	274.7000122E+0
293.0354178E-3	418.3232877E-3	2.7122384E+0	274.8000183E+0
292.9583312E-3	375.3668163E-3	2.7115266E+0	274.8999939E+0
292.8942163E-3	335.2710483E-3	2.7109346E+0	275.0000000E+0
292.8243586E-3	345.5602215E-3	2.7102896E+0	275.1000061E+0
292.7292583E-3	456.5575730E-3	2.7094114E+0	275.2000122E+0
292.6446148E-3	449.8289654E-3	2.7086299E+0	275.3000183E+0
292.5955522E-3	356.8986823E-3	2.7081768E+0	275.3999939E+0
292.5477543E-3	290.9297758E-3	2.7077355E+0	275.5000000E+0
292.4166582E-3	440.6978174E-3	2.7065250E+0	275.6000061E+0
292.3903330E-3	265.8692606E-3	2.7062819E+0	275.7000122E+0
292.3234272E-3	115.3214595E-3	2.7056641E+0	275.8000183E+0
292.2319207E-3	252.4986124E-3	2.7048192E+0	275.8999939E+0
292.1620808E-3	290.5562299E-3	2.7041743E+0	276.0000000E+0
292.1008553E-3	198.9183570E-3	2.7036090E+0	276.1000061E+0
292.0262378E-3	144.1083342E-3	2.7029200E+0	276.2000122E+0
291.9512070E-3	117.7737209E-3	2.7022272E+0	276.3000183E+0
291.9060158E-3	126.0681149E-3	2.7018099E+0	276.3999939E+0
291.7858284E-3	177.1898518E-3	2.7007002E+0	276.5000000E+0
291.7305837E-3	245.1429010E-3	2.7001901E+0	276.6000061E+0
291.6523963E-3	236.3269287E-3	2.6994681E+0	276.7000122E+0
291.5684173E-3	355.8541610E-3	2.6986927E+0	276.8000183E+0
291.4981059E-3	246.5884724E-3	2.6980435E+0	276.8999939E+0
291.4231443E-3	238.3404260E-3	2.6973513E+0	277.0000000E+0
291.3691555E-3	186.6768732E-3	2.6968528E+0	277.1000061E+0
291.2801406E-3	219.3490461E-3	2.6960308E+0	277.2000122E+0
291.2129119E-3	184.4068350E-3	2.6954101E+0	277.3000183E+0
291.1523204E-3	145.0842961E-3	2.6948506E+0	277.3999939E+0
291.0581575E-3	205.9634387E-3	2.6939811E+0	277.5000000E+0
290.9844764E-3	332.7089453E-3	2.6933008E+0	277.6000061E+0
290.9203515E-3	268.0428173E-3	2.6927087E+0	277.7000122E+0
290.8556400E-3	259.0197467E-3	2.6921112E+0	277.8000183E+0
290.7505539E-3	231.3105097E-3	2.6911408E+0	277.8999939E+0
290.7038331E-3	30.7353380E-3	2.6907094E+0	278.0000000E+0
290.6342178E-3	20.0501595E-3	2.6900666E+0	278.1000061E+0
290.5829843E-3	101.7348628E-3	2.6895936E+0	278.2000122E+0
290.5072696E-3	137.8437651E-3	2.6888945E+0	278.3000183E+0
290.4606371E-3	71.0114413E-3	2.6884639E+0	278.3999939E+0
290.3449166E-3	103.9756068E-3	2.6873954E+0	278.5000000E+0
290.2495421E-3	257.2521199E-3	2.6865147E+0	278.6000061E+0
290.1991398E-3	251.2221105E-3	2.6860493E+0	278.7000122E+0
290.1245402E-3	124.8365009E-3	2.6853605E+0	278.8000183E+0
290.0544892E-3	66.0883948E-3	2.6847137E+0	278.8999939E+0
289.9923704E-3	152.0319369E-3	2.6841401E+0	279.0000000E+0
289.8817408E-3	244.2279054E-3	2.6831186E+0	279.1000061E+0
289.8290939E-3	160.7384818E-3	2.6826324E+0	279.2000122E+0
289.7411851E-3	268.5985245E-3	2.6818207E+0	279.3000183E+0
289.6933548E-3	253.9570487E-3	2.6813791E+0	279.3999939E+0
289.5951267E-3	220.7566779E-3	2.6804721E+0	279.5000000E+0
289.5290756E-3	258.4635855E-3	2.6798622E+0	279.6000061E+0
289.4487868E-3	267.1842333E-3	2.6791208E+0	279.7000122E+0
289.3549943E-3	227.0950061E-3	2.6782548E+0	279.8000183E+0
289.2959743E-3	157.0247705E-3	2.6777098E+0	279.8999939E+0
289.2001707E-3	255.8933014E-3	2.6768252E+0	280.0000000E+0
289.1518835E-3	228.7926601E-3	2.6763793E+0	280.1000061E+0
289.0853866E-3	130.3274335E-3	2.6757653E+0	280.2000122E+0
289.0245135E-3	184.4650932E-3	2.6752033E+0	280.3000183E+0
288.9343093E-3	288.4216754E-3	2.6743704E+0	280.3999939E+0
288.8744957E-3	252.6517569E-3	2.6738181E+0	280.5000000E+0
288.7942340E-3	158.4521433E-3	2.6730770E+0	280.6000061E+0
288.7081123E-3	308.8255566E-3	2.6722817E+0	280.7000122E+0
288.6171059E-3	359.6455877E-3	2.6714414E+0	280.8000183E+0
288.5449493E-3	379.3431848E-3	2.6707752E+0	280.8999939E+0
288.4776607E-3	382.9973225E-3	2.6701538E+0	281.0000000E+0
288.4037478E-3	298.9089441E-3	2.6694714E+0	281.1000061E+0
288.3547717E-3	208.1311562E-3	2.6690191E+0	281.2000122E+0
288.2855687E-3	240.4051367E-3	2.6683801E+0	281.3000183E+0
288.1820557E-3	269.3053452E-3	2.6674243E+0	281.3999939E+0
288.1007206E-3	224.8331645E-3	2.6666733E+0	281.5000000E+0
288.0185932E-3	314.0697919E-3	2.6659150E+0	281.6000061E+0
287.9202959E-3	457.2853004E-3	2.6650073E+0	281.7000122E+0
287.8773392E-3	340.4787729E-3	2.6646107E+0	281.8000183E+0
287.7588383E-3	389.2016268E-3	2.6635165E+0	281.8999939E+0
287.7111282E-3	316.3884628E-3	2.6630760E+0	282.0000000E+0
287.6422715E-3	317.0783074E-3	2.6624402E+0	282.1000061E+0
287.5674491E-3	315.8082947E-3	2.6617493E+0	282.2000122E+0
287.4824184E-3	394.8922643E-3	2.6609642E+0	282.3000183E+0
287.4101054E-3	274.0479325E-3	2.6602964E+0	282.3999939E+0
287.3588093E-3	222.5161907E-3	2.6598228E+0	282.5000000E+0
287.2925777E-3	153.2076965E-3	2.6592112E+0	282.6000061E+0
287.2100459E-3	263.1421940E-3	2.6584492E+0	282.7000122E+0
287.1619374E-3	255.6642301E-3	2.6580050E+0	282.8000183E+0
287.0544615E-3	335.6350307E-3	2.6570126E+0	282.8999939E+0
286.9859607E-3	288.0642029E-3	2.6563801E+0	283.0000000E+0
286.9349282E-3	210.6567795E-3	2.6559088E+0	283.1000061E+0
286.8501428E-3	153.0670391E-3	2.6551260E+0	283.2000122E+0
286.7744400E-3	168.6056626E-3	2.6544270E+0	283.3000183E+0
286.6993024E-3	179.1445714E-3	2.6537332E+0	283.3999939E+0
286.6238414E-3	230.8192042E-3	2.6530364E+0	283.5000000E+0
286.5484620E-3	162.2710433E-3	2.6523404E+0	283.6000061E+0
286.4629660E-3	211.3200535E-3	2.6515509E+0	283.7000122E+0
286.3789873E-3	190.6784401E-3	2.6507755E+0	283.8000183E+0
286.2889630E-3	196.1333211E-3	2.6499443E+0	283.8999939E+0
286.2363903E-3	256.6003335E-3	2.6494588E+0	284.0000000E+0
286.1571937E-3	220.3260860E-3	2.6487275E+0	284.1000061E+0
286.0991273E-3	339.4606778E-3	2.6481914E+0	284.2000122E+0
286.0101850E-3	248.6710567E-3	2.6473701E+0	284.3000183E+0
285.9555605E-3	239.7840527E-3	2.6468657E+0	284.3999939E+0
285.8792252E-3	237.8662874E-3	2.6461609E+0	284.5000000E+0
285.7927013E-3	160.0732631E-3	2.6453620E+0	284.6000061E+0
285.6989222E-3	204.2024507E-3	2.6444961E+0	284.7000122E+0
285.6124894E-3	228.7008056E-3	2.6436980E+0	284.8000183E+0
285.5414255E-3	315.6467822E-3	2.6430418E+0	284.8999939E+0
285.4341133E-3	371.1058987E-3	2.6420509E+0	285.0000000E+0
285.4267609E-3	231.4405565E-3	2.6419830E+0	285.1000061E+0
285.3626589E-3	126.4928315E-3	2.6413911E+0	285.2000122E+0
285.2885861E-3	118.1328183E-3	2.6407072E+0	285.3000183E+0
285.2135508E-3	103.2450630E-3	2.6400143E+0	285.3999939E+0
285.1200327E-3	221.8282650E-3	2.6391508E+0	285.5000000E+0
285.0551246E-3	166.8165978E-3	2.6385515E+0	285.6000061E+0
284.9563423E-3	314.7762669E-3	2.6376394E+0	285.7000122E+0
284.8839516E-3	222.4631217E-3	2.6369709E+0	285.8000183E+0
284.8367554E-3	134.5378820E-3	2.6365351E+0	285.8999939E+0
284.7692724E-3	98.6643029E-3	2.6359120E+0	286.0000000E+0
284.6869663E-3	216.8319547E-3	2.6351520E+0	286.1000061E+0
284.6118858E-3	174.6780116E-3	2.6344588E+0	286.2000122E+0
284.5412280E-3	192.2970323E-3	2.6338064E+0	286.3000183E+0
284.4705887E-3	105.6219302E-3	2.6331541E+0	286.3999939E+0
284.3651099E-3	243.6443432E-3	2.6321801E+0	286.5000000E+0
284.2944109E-3	304.5533268E-3	2.6315273E+0	286.6000061E+0
284.2265480E-3	258.6273162E-3	2.6309007E+0	286.7000122E+0
284.1463391E-3	202.8684283E-3	2.6301601E+0	286.8000183E+0
284.0846197E-3	247.0630803E-3	2.6295902E+0	286.8999939E+0
284.0000729E-3	292.0357019E-3	2.6288095E+0	287.0000000E+0
283.9074368E-3	340.8905163E-3	2.6279542E+0	287.1000061E+0
283.8201381E-3	349.2192441E-3	2.6271481E+0	287.2000122E+0
283.7800641E-3	246.2724935E-3	2.6267781E+0	287.3000183E+0
283.7100996E-3	237.5507367E-3	2.6261320E+0	287.3999939E+0
283.6265120E-3	315.3949265E-3	2.6253602E+0	287.5000000E+0
283.5393082E-3	292.6158494E-3	2.6245550E+0	287.6000061E+0
283.4498341E-3	285.3665853E-3	2.6237288E+0	287.7000122E+0
283.3998977E-3	275.8283520E-3	2.6232678E+0	287.8000183E+0
283.3284473E-3	243.7213622E-3	2.6226080E+0	287.8999939E+0
283.2464250E-3	296.8473439E-3	2.6218506E+0	288.0000000E+0
283.1429707E-3	336.9134720E-3	2.6208954E+0	288.1000061E+0
283.0790285E-3	269.8279514E-3	2.6203050E+0	288.2000122E+0
283.0327758E-3	147.7880882E-3	2.6198779E+0	288.3000183E+0
282.9449866E-3	238.6976354E-3	2.6190673E+0	288.3999939E+0
282.8721116E-3	293.3297730E-3	2.6183944E+0	288.5000000E+0
282.8022510E-3	259.0920253E-3	2.6177493E+0	288.6000061E+0
282.7586788E-3	181.7970484E-3	2.6173470E+0	288.7000122E+0
282.6746861E-3	216.5976632E-3	2.6165714E+0	288.8000183E+0
282.5747860E-3	339.4154547E-3	2.6156490E+0	288.8999939E+0
282.5225295E-3	278.8355882E-3	2.6151665E+0	289.0000000E+0
282.4188289E-3	315.3263516E-3	2.6142089E+0	289.1000061E+0
282.3819889E-3	270.0284146E-3	2.6138688E+0	289.2000122E+0
282.2972750E-3	159.8628598E-3	2.6130866E+0	289.3000183E+0
282.2018971E-3	322.8436788E-3	2.6122059E+0	289.3999939E+0
282.1283702E-3	414.2414932E-3	2.6115270E+0	289.5000000E+0
282.0377134E-3	336.9050227E-3	2.6106899E+0	289.6000061E+0
281.9923194E-3	238.6736492E-3	2.6102707E+0	289.7000122E+0
281.9340268E-3	149.9408310E-3	2.6097325E+0	289.8000183E+0
281.8478023E-3	147.6714222E-3	2.6089363E+0	289.8999939E+0
281.8122114E-3	58.6168582E-3	2.6086077E+0	290.0000000E+0
281.7010048E-3	142.8419685E-3	2.6075808E+0	290.1000061E+0
281.6074923E-3	298.1410281E-3	2.6067174E+0	290.2000122E+0
281.5329748E-3	212.7374758E-3	2.6060293E+0	290.3000183E+0
281.4791849E-3	105.1792885E-3	2.6055326E+0	290.3999939E+0
281.3771775E-3	132.7349206E-3	2.6045907E+0	290.5000000E+0
281.2990423E-3	167.3372594E-3	2.6038693E+0	290.6000061E+0
281.2215813E-3	183.0124549E-3	2.6031540E+0	290.7000122E+0
281.1510074E-3	103.7106903E-3	2.6025024E+0	290.8000183E+0
281.0970270E-3	210.0994473E-3	2.6020039E+0	290.8999939E+0
281.0003469E-3	267.5829776E-3	2.6011112E+0	291.0000000E+0
280.9636258E-3	208.3774150E-3	2.6007722E+0	291.1000061E+0
280.8600291E-3	268.4185193E-3	2.5998156E+0	291.2000122E+0
280.7880519E-3	315.8420921E-3	2.5991510E+0	291.3000183E+0
280.6972739E-3	291.2524708E-3	2.5983128E+0	291.3999939E+0
280.6253000E-3	309.3534553E-3	2.5976482E+0	291.5000000E+0
280.5909610E-3	128.5635413E-3	2.5973311E+0	291.6000061E+0
280.4975892E-3	151.7430341E-3	2.5964690E+0	291.7000122E+0
280.4203232E-3	196.8326725E-3	2.5957555E+0	291.8000183E+0
280.3325256E-3	236.6892279E-3	2.5949448E+0	291.8999939E+0
280.2985426E-3	189.4957580E-3	2.5946310E+0	292.0000000E+0
280.2021993E-3	115.3994535E-3	2.5937415E+0	292.1000061E+0
280.1397705E-3	112.1458552E-3	2.5931650E+0	292.2000122E+0
280.0607162E-3	117.4718191E-3	2.5924351E+0	292.3000183E+0
279.9763895E-3	217.6700652E-3	2.5916564E+0	292.3999939E+0
279.8894204E-3	280.1452375E-3	2.5908534E+0	292.5000000E+0
279.8181392E-3	250.3239312E-3	2.5901952E+0	292.6000061E+0
279.7253143E-3	293.1595377E-3	2.5893381E+0	292.7000122E+0
279.6617746E-3	256.5866915E-3	2.5887514E+0	292.8000183E+0
279.6072743E-3	213.7506551E-3	2.5882481E+0	292.8999939E+0
279.5265375E-3	327.9603898E-3	2.5875027E+0	293.0000000E+0
279.4615249E-3	235.9772077E-3	2.5869024E+0	293.1000061E+0
279.3652319E-3	210.8823121E-3	2.5860132E+0	293.2000122E+0
279.2941636E-3	199.4455748E-3	2.5853570E+0	293.3000183E+0
279.2197015E-3	208.7430016E-3	2.5846695E+0	293.3999939E+0
279.1632736E-3	55.4138941E-3	2.5841484E+0	293.5000000E+0
279.0872472E-3	77.4323131E-3	2.5834464E+0	293.6000061E+0
279.0251798E-3	55.9017280E-3	2.5828733E+0	293.7000122E+0
278.9697832E-3	115.6903061E-3	2.5823618E+0	293.8000183E+0
278.8738886E-3	168.1099365E-3	2.5814763E+0	293.8999939E+0
278.7881295E-3	300.6205410E-3	2.5806845E+0	294.0000000E+0
278.7082585E-3	282.6781856E-3	2.5799470E+0	294.1000061E+0
