Magnetic Field (T)	Diode Voltage (V)	Hall probe (V)	Acquisition Time 		
Tesla	Volts	Volts	Seconds		
NaN	NaN	NaN	0.0000000E+0
NaN	NaN	NaN	100.0000015E-3
277.7377191E-3	-1.1836129E+0	2.5709854E+0	200.0000030E-3
277.7355370E-3	-1.0901916E+0	2.5709653E+0	300.0000119E-3
277.8352891E-3	-1.0845912E+0	2.5718863E+0	400.0000060E-3
277.9344932E-3	-1.0796997E+0	2.5728023E+0	500.0000000E-3
278.0990433E-3	-1.1079912E+0	2.5743217E+0	600.0000238E-3
278.2502257E-3	-1.0749587E+0	2.5757177E+0	699.9999881E-3
278.4271516E-3	-1.1258680E+0	2.5773514E+0	800.0000119E-3
278.5686749E-3	-1.1422091E+0	2.5786581E+0	900.0000358E-3
278.7811391E-3	-1.1335140E+0	2.5806199E+0	1.0000000E+0
278.9565500E-3	-1.1412916E+0	2.5822396E+0	1.1000000E+0
279.1362228E-3	-1.1463123E+0	2.5838986E+0	1.2000000E+0
279.3109621E-3	-1.1368995E+0	2.5855121E+0	1.3000001E+0
279.4797206E-3	-1.0965812E+0	2.5870704E+0	1.4000000E+0
279.6758612E-3	-1.1526953E+0	2.5888815E+0	1.5000000E+0
279.8347646E-3	-1.1187000E+0	2.5903487E+0	1.6000000E+0
280.0076682E-3	-1.1001887E+0	2.5919452E+0	1.7000000E+0
280.1989966E-3	-1.1560815E+0	2.5937119E+0	1.8000001E+0
280.3682836E-3	-1.1576755E+0	2.5952750E+0	1.9000000E+0
280.5581058E-3	-1.1361920E+0	2.5970278E+0	2.0000000E+0
280.7201963E-3	-1.1585760E+0	2.5985244E+0	2.1000001E+0
280.9140269E-3	-1.1228998E+0	2.6003142E+0	2.2000000E+0
281.0907751E-3	-1.1878424E+0	2.6019462E+0	2.3000000E+0
281.2542773E-3	-1.1609451E+0	2.6034559E+0	2.4000001E+0
281.4424991E-3	-1.1358850E+0	2.6051939E+0	2.5000000E+0
281.5916831E-3	-1.1281275E+0	2.6065714E+0	2.6000001E+0
281.7969810E-3	-1.1573681E+0	2.6084670E+0	2.7000000E+0
281.9585145E-3	-1.1520860E+0	2.6099586E+0	2.8000000E+0
282.1360829E-3	-1.2210151E+0	2.6115982E+0	2.9000001E+0
282.3414517E-3	-1.1920445E+0	2.6134945E+0	3.0000000E+0
282.4982373E-3	-1.1544076E+0	2.6149422E+0	3.1000001E+0
282.7167690E-3	-1.1535693E+0	2.6169600E+0	3.2000000E+0
282.8937597E-3	-1.1823230E+0	2.6185943E+0	3.3000000E+0
283.0928885E-3	-1.2016619E+0	2.6204330E+0	3.4000001E+0
283.2579935E-3	-1.2342913E+0	2.6219575E+0	3.5000000E+0
283.4482504E-3	-1.2060256E+0	2.6237142E+0	3.6000001E+0
283.6174474E-3	-1.1466820E+0	2.6252765E+0	3.7000000E+0
283.8021966E-3	-1.1983897E+0	2.6269824E+0	3.8000000E+0
283.9980629E-3	-1.2238643E+0	2.6287910E+0	3.9000001E+0
284.1627432E-3	-1.1612925E+0	2.6303116E+0	4.0000000E+0
284.3603235E-3	-1.1979471E+0	2.6321360E+0	4.0999999E+0
284.5412951E-3	-1.1903248E+0	2.6338070E+0	4.2000003E+0
284.7454249E-3	-1.2335845E+0	2.6356918E+0	4.3000002E+0
284.9162682E-3	-1.2289232E+0	2.6372693E+0	4.4000001E+0
285.1149702E-3	-1.1846683E+0	2.6391041E+0	4.5000000E+0
285.2718083E-3	-1.1827935E+0	2.6405522E+0	4.5999999E+0
285.4688880E-3	-1.1863710E+0	2.6423720E+0	4.7000003E+0
285.6694994E-3	-1.1936032E+0	2.6442244E+0	4.8000002E+0
285.8314306E-3	-1.2123958E+0	2.6457196E+0	4.9000001E+0
286.0305823E-3	-1.2659094E+0	2.6475585E+0	5.0000000E+0
286.2119920E-3	-1.1898302E+0	2.6492335E+0	5.0999999E+0
286.3892050E-3	-1.2407778E+0	2.6508699E+0	5.2000003E+0
286.5781798E-3	-1.2049072E+0	2.6526148E+0	5.3000002E+0
286.7512466E-3	-1.1778207E+0	2.6542128E+0	5.4000001E+0
286.9375678E-3	-1.2079073E+0	2.6559332E+0	5.5000000E+0
287.1167373E-3	-1.2663155E+0	2.6575876E+0	5.5999999E+0
287.2951821E-3	-1.2531084E+0	2.6592353E+0	5.7000003E+0
287.4743208E-3	-1.2326970E+0	2.6608894E+0	5.8000002E+0
287.6860203E-3	-1.2740601E+0	2.6628441E+0	5.9000001E+0
287.8584703E-3	-1.2572391E+0	2.6644365E+0	6.0000000E+0
288.0718608E-3	-1.2956824E+0	2.6664068E+0	6.0999999E+0
288.2277956E-3	-1.2674247E+0	2.6678467E+0	6.2000003E+0
288.4305209E-3	-1.3148576E+0	2.6697186E+0	6.3000002E+0
288.6165355E-3	-1.3036735E+0	2.6714362E+0	6.4000001E+0
288.7843443E-3	-1.3093346E+0	2.6729856E+0	6.5000000E+0
288.9414734E-3	-1.2730752E+0	2.6744365E+0	6.5999999E+0
289.1451685E-3	-1.2686659E+0	2.6763173E+0	6.7000003E+0
289.3591104E-3	-1.3057335E+0	2.6782928E+0	6.8000002E+0
289.5195507E-3	-1.2345820E+0	2.6797742E+0	6.9000001E+0
289.7257346E-3	-1.2808037E+0	2.6816781E+0	7.0000000E+0
289.8892222E-3	-1.3127779E+0	2.6831876E+0	7.0999999E+0
290.0717346E-3	-1.3311459E+0	2.6848729E+0	7.2000003E+0
290.2736472E-3	-1.3104525E+0	2.6867373E+0	7.3000002E+0
290.4598181E-3	-1.3028715E+0	2.6884563E+0	7.4000001E+0
290.6505130E-3	-1.2771747E+0	2.6902171E+0	7.5000000E+0
290.8348929E-3	-1.3104454E+0	2.6919196E+0	7.5999999E+0
291.0319380E-3	-1.2214523E+0	2.6937390E+0	7.7000003E+0
291.2268982E-3	-1.2955036E+0	2.6955392E+0	7.8000002E+0
291.3679941E-3	-1.3058485E+0	2.6968421E+0	7.9000001E+0
291.5911732E-3	-1.2977465E+0	2.6989028E+0	8.0000000E+0
291.7792804E-3	-1.2486741E+0	2.7006397E+0	8.1000004E+0
291.9638235E-3	-1.2760840E+0	2.7023437E+0	8.1999998E+0
292.1502336E-3	-1.2688839E+0	2.7040649E+0	8.3000002E+0
292.3404223E-3	-1.2170465E+0	2.7058211E+0	8.4000006E+0
292.5074378E-3	-1.2578877E+0	2.7073632E+0	8.5000000E+0
292.6909664E-3	-1.2845728E+0	2.7090579E+0	8.6000004E+0
292.8806311E-3	-1.2009372E+0	2.7108092E+0	8.6999998E+0
293.0717646E-3	-1.1859926E+0	2.7125740E+0	8.8000002E+0
293.2687057E-3	-1.1987754E+0	2.7143925E+0	8.9000006E+0
293.4527929E-3	-1.1874816E+0	2.7160923E+0	9.0000000E+0
293.6471034E-3	-1.1262271E+0	2.7178865E+0	9.1000004E+0
293.8133591E-3	-1.1109102E+0	2.7194216E+0	9.1999998E+0
294.0246731E-3	-1.1443698E+0	2.7213728E+0	9.3000002E+0
294.1908585E-3	-1.0558912E+0	2.7229073E+0	9.4000006E+0
294.3509992E-3	-953.0092004E-3	2.7243860E+0	9.5000000E+0
294.5290804E-3	-934.2242828E-3	2.7260303E+0	9.6000004E+0
294.7318069E-3	-916.2438022E-3	2.7279022E+0	9.6999998E+0
294.9221661E-3	-868.9164375E-3	2.7296599E+0	9.8000002E+0
295.1103789E-3	-858.0276389E-3	2.7313978E+0	9.9000006E+0
295.2655008E-3	-746.3176172E-3	2.7328301E+0	10.0000000E+0
295.4477042E-3	-678.1567079E-3	2.7345125E+0	10.1000004E+0
295.6431174E-3	-644.5835856E-3	2.7363169E+0	10.1999998E+0
295.8196579E-3	-626.4186378E-3	2.7379470E+0	10.3000002E+0
295.9906895E-3	-580.7421977E-3	2.7395262E+0	10.4000006E+0
296.1919333E-3	-542.6223036E-3	2.7413844E+0	10.5000000E+0
296.3544400E-3	-470.7657784E-3	2.7428849E+0	10.6000004E+0
296.5127339E-3	-423.7418939E-3	2.7443466E+0	10.6999998E+0
296.6984808E-3	-428.5870753E-3	2.7460617E+0	10.8000002E+0
296.9126171E-3	-407.3621783E-3	2.7480389E+0	10.9000006E+0
297.0802851E-3	-360.3057963E-3	2.7495871E+0	11.0000000E+0
297.3301402E-3	-340.0349536E-3	2.7518942E+0	11.1000004E+0
297.4401100E-3	-300.9239322E-3	2.7529096E+0	11.1999998E+0
297.6470269E-3	-289.5639354E-3	2.7548202E+0	11.3000002E+0
297.8354470E-3	-258.3857552E-3	2.7565600E+0	11.4000006E+0
297.9798289E-3	-241.5729252E-3	2.7578932E+0	11.5000000E+0
298.1521599E-3	-241.1242895E-3	2.7594844E+0	11.6000004E+0
298.3522250E-3	-292.8344839E-3	2.7613317E+0	11.6999998E+0
298.5378680E-3	-296.3659048E-3	2.7630459E+0	11.8000002E+0
298.7520026E-3	-259.3510083E-3	2.7650231E+0	11.9000006E+0
298.9280788E-3	-317.4095226E-3	2.7666489E+0	12.0000000E+0
299.1580098E-3	-304.1423145E-3	2.7687720E+0	12.1000004E+0
299.3115647E-3	-349.2696448E-3	2.7701899E+0	12.1999998E+0
299.5172397E-3	-381.3594263E-3	2.7720890E+0	12.3000002E+0
299.7168478E-3	-365.7549309E-3	2.7739321E+0	12.4000006E+0
299.8829170E-3	-424.5738299E-3	2.7754655E+0	12.5000000E+0
300.0984342E-3	-427.7757004E-3	2.7774555E+0	12.6000004E+0
300.2772953E-3	-477.4553839E-3	2.7791071E+0	12.6999998E+0
300.4671505E-3	-522.2668437E-3	2.7808601E+0	12.8000002E+0
300.7069567E-3	-531.9777316E-3	2.7830744E+0	12.9000006E+0
300.8438052E-3	-546.6968403E-3	2.7843380E+0	13.0000000E+0
301.0543757E-3	-557.3787690E-3	2.7862823E+0	13.1000004E+0
301.2670925E-3	-654.8756062E-3	2.7882465E+0	13.1999998E+0
301.4373654E-3	-658.8427928E-3	2.7898187E+0	13.3000002E+0
301.6430678E-3	-673.2413989E-3	2.7917181E+0	13.4000006E+0
301.8132810E-3	-675.2891283E-3	2.7932898E+0	13.5000000E+0
302.0163069E-3	-694.7365978E-3	2.7951644E+0	13.6000004E+0
302.2382230E-3	-725.3518542E-3	2.7972135E+0	13.6999998E+0
302.4025000E-3	-754.2081086E-3	2.7987304E+0	13.8000002E+0
302.6024539E-3	-821.8908817E-3	2.8005767E+0	13.9000006E+0
302.8020279E-3	-823.1708190E-3	2.8024195E+0	14.0000000E+0
302.9815471E-3	-797.3018071E-3	2.8040771E+0	14.1000004E+0
303.1696532E-3	-835.7393669E-3	2.8058140E+0	14.1999998E+0
303.3699116E-3	-842.1007528E-3	2.8076631E+0	14.3000002E+0
303.5653047E-3	-894.3888766E-3	2.8094673E+0	14.4000006E+0
303.7526549E-3	-880.5855938E-3	2.8111972E+0	14.5000000E+0
303.9616416E-3	-880.9277925E-3	2.8131269E+0	14.6000004E+0
304.1660340E-3	-924.8699648E-3	2.8150142E+0	14.6999998E+0
304.3283043E-3	-849.5106009E-3	2.8165125E+0	14.8000002E+0
304.5136720E-3	-930.0945623E-3	2.8182241E+0	14.9000006E+0
304.7175454E-3	-959.4156031E-3	2.8201066E+0	15.0000000E+0
304.9071498E-3	-953.1918364E-3	2.8218573E+0	15.1000004E+0
305.1139236E-3	-940.9607315E-3	2.8237666E+0	15.1999998E+0
305.3115201E-3	-941.8646352E-3	2.8255911E+0	15.3000002E+0
305.4755921E-3	-976.1109933E-3	2.8271061E+0	15.4000006E+0
305.6841100E-3	-1.0212068E+0	2.8290315E+0	15.5000000E+0
305.8616119E-3	-1.0089942E+0	2.8306705E+0	15.6000004E+0
306.0138149E-3	-966.4605662E-3	2.8320759E+0	15.6999998E+0
306.2302791E-3	-1.0435670E+0	2.8340746E+0	15.8000002E+0
306.4183790E-3	-1.0137155E+0	2.8358114E+0	15.9000006E+0
306.5921357E-3	-1.0386066E+0	2.8374158E+0	16.0000000E+0
306.7732228E-3	-1.0240829E+0	2.8390879E+0	16.1000004E+0
306.9915966E-3	-1.0507451E+0	2.8411043E+0	16.2000008E+0
307.2066028E-3	-1.0569993E+0	2.8430896E+0	16.3000011E+0
307.4079863E-3	-1.0788639E+0	2.8449491E+0	16.3999996E+0
307.5674075E-3	-1.0948209E+0	2.8464211E+0	16.5000000E+0
307.7521913E-3	-1.0620461E+0	2.8481273E+0	16.6000004E+0
307.9514291E-3	-1.0581523E+0	2.8499670E+0	16.7000008E+0
308.1667860E-3	-1.0473933E+0	2.8519555E+0	16.8000011E+0
308.3493414E-3	-1.1045230E+0	2.8536412E+0	16.8999996E+0
308.5364922E-3	-1.0432447E+0	2.8553693E+0	17.0000000E+0
308.7299731E-3	-1.0477765E+0	2.8571558E+0	17.1000004E+0
308.9205032E-3	-1.0750623E+0	2.8589151E+0	17.2000008E+0
309.1167639E-3	-1.1042396E+0	2.8607273E+0	17.3000011E+0
309.2880218E-3	-1.0393638E+0	2.8623086E+0	17.3999996E+0
309.4802601E-3	-1.0362088E+0	2.8640837E+0	17.5000000E+0
309.6807541E-3	-1.0829573E+0	2.8659349E+0	17.6000004E+0
309.8693258E-3	-1.0225378E+0	2.8676761E+0	17.7000008E+0
310.0800175E-3	-1.1143585E+0	2.8696216E+0	17.8000011E+0
310.2664370E-3	-1.0861986E+0	2.8713429E+0	17.8999996E+0
310.4559610E-3	-1.0954009E+0	2.8730929E+0	18.0000000E+0
310.6313556E-3	-1.0196336E+0	2.8747124E+0	18.1000004E+0
310.8330419E-3	-1.0458499E+0	2.8765747E+0	18.2000008E+0
311.0391739E-3	-1.0535282E+0	2.8784781E+0	18.3000011E+0
311.2250885E-3	-1.1119359E+0	2.8801947E+0	18.3999996E+0
311.4066428E-3	-1.0335582E+0	2.8818711E+0	18.5000000E+0
311.6062593E-3	-1.0332965E+0	2.8837143E+0	18.6000004E+0
311.8097991E-3	-1.1068449E+0	2.8855937E+0	18.7000008E+0
311.9855619E-3	-1.0965981E+0	2.8872166E+0	18.8000011E+0
312.1823277E-3	-1.1771404E+0	2.8890335E+0	18.8999996E+0
312.3727751E-3	-1.1004507E+0	2.8907920E+0	19.0000000E+0
312.5504060E-3	-1.0555944E+0	2.8924322E+0	19.1000004E+0
312.7298262E-3	-1.1116383E+0	2.8940889E+0	19.2000008E+0
312.9390235E-3	-1.1199633E+0	2.8960205E+0	19.3000011E+0
313.1193270E-3	-1.0938836E+0	2.8976854E+0	19.3999996E+0
313.3046427E-3	-1.1000080E+0	2.8993965E+0	19.5000000E+0
313.4950376E-3	-1.1139513E+0	2.9011545E+0	19.6000004E+0
313.6846610E-3	-1.1117406E+0	2.9029055E+0	19.7000008E+0
313.8836205E-3	-1.0972125E+0	2.9047426E+0	19.8000011E+0
314.0705367E-3	-1.0503291E+0	2.9064685E+0	19.8999996E+0
314.2879975E-3	-1.0833407E+0	2.9084764E+0	20.0000000E+0
314.4679563E-3	-1.1259979E+0	2.9101381E+0	20.1000004E+0
314.6634880E-3	-1.0589096E+0	2.9119436E+0	20.2000008E+0
314.8721708E-3	-1.0826061E+0	2.9138705E+0	20.3000011E+0
315.0583842E-3	-1.1062135E+0	2.9155899E+0	20.3999996E+0
315.2504774E-3	-1.1358983E+0	2.9173636E+0	20.5000000E+0
315.4591842E-3	-1.0963697E+0	2.9192907E+0	20.6000004E+0
315.6354380E-3	-1.1253422E+0	2.9209182E+0	20.7000008E+0
315.8064808E-3	-1.0862536E+0	2.9224975E+0	20.8000011E+0
315.9865413E-3	-1.1074026E+0	2.9241601E+0	20.8999996E+0
316.1874438E-3	-1.1414834E+0	2.9260152E+0	21.0000000E+0
316.3809694E-3	-1.1023430E+0	2.9278021E+0	21.1000004E+0
316.5605444E-3	-1.0718923E+0	2.9294602E+0	21.2000008E+0
316.7648390E-3	-1.0697110E+0	2.9313466E+0	21.3000011E+0
316.9475687E-3	-1.0773307E+0	2.9330339E+0	21.3999996E+0
317.1135842E-3	-1.0845100E+0	2.9345668E+0	21.5000000E+0
317.3056372E-3	-1.0739867E+0	2.9363401E+0	21.6000004E+0
317.5170925E-3	-1.0680429E+0	2.9382926E+0	21.7000008E+0
317.6789456E-3	-1.0877190E+0	2.9397871E+0	21.8000011E+0
317.8962460E-3	-1.1121040E+0	2.9417936E+0	21.8999996E+0
318.0713038E-3	-1.0954653E+0	2.9434100E+0	22.0000000E+0
318.2539659E-3	-1.0707100E+0	2.9450966E+0	22.1000004E+0
318.4420838E-3	-1.0811279E+0	2.9468336E+0	22.2000008E+0
318.6288257E-3	-1.0296724E+0	2.9485579E+0	22.3000011E+0
318.8368666E-3	-1.0877344E+0	2.9504789E+0	22.3999996E+0
319.0306798E-3	-1.0643950E+0	2.9522685E+0	22.5000000E+0
319.2475820E-3	-1.0757038E+0	2.9542713E+0	22.6000004E+0
319.4462248E-3	-1.1001244E+0	2.9561055E+0	22.7000008E+0
319.6182217E-3	-1.0486129E+0	2.9576936E+0	22.8000011E+0
319.8355998E-3	-1.1074002E+0	2.9597008E+0	22.8999996E+0
319.9961786E-3	-1.0674007E+0	2.9611836E+0	23.0000000E+0
320.1718129E-3	-1.0407699E+0	2.9628053E+0	23.1000004E+0
320.3664334E-3	-1.0297692E+0	2.9646023E+0	23.2000008E+0
320.5876623E-3	-1.0762995E+0	2.9666451E+0	23.3000011E+0
320.7862235E-3	-1.0819825E+0	2.9684785E+0	23.3999996E+0
320.9632964E-3	-1.1087895E+0	2.9701135E+0	23.5000000E+0
321.1615062E-3	-1.0892810E+0	2.9719437E+0	23.6000004E+0
321.3647282E-3	-1.0885410E+0	2.9738202E+0	23.7000008E+0
321.5422507E-3	-1.0663202E+0	2.9754594E+0	23.8000011E+0
321.7432895E-3	-1.0530269E+0	2.9773157E+0	23.8999996E+0
321.9174054E-3	-1.0667256E+0	2.9789234E+0	24.0000000E+0
322.1049451E-3	-1.0403553E+0	2.9806551E+0	24.1000004E+0
322.3064386E-3	-1.1014820E+0	2.9825156E+0	24.2000008E+0
322.5025407E-3	-1.1010408E+0	2.9843263E+0	24.3000011E+0
322.7208255E-3	-1.1128617E+0	2.9863419E+0	24.3999996E+0
322.8512998E-3	-1.1135001E+0	2.9875466E+0	24.5000000E+0
323.0593575E-3	-1.0108177E+0	2.9894678E+0	24.6000004E+0
323.2314249E-3	-1.0677605E+0	2.9910566E+0	24.7000008E+0
323.4363289E-3	-1.0844073E+0	2.9929486E+0	24.8000011E+0
323.6329338E-3	-1.0529674E+0	2.9947639E+0	24.8999996E+0
323.8494097E-3	-1.0779202E+0	2.9967628E+0	25.0000000E+0
324.0415034E-3	-1.1207948E+0	2.9985365E+0	25.1000004E+0
324.2175126E-3	-1.0502157E+0	3.0001617E+0	25.2000008E+0
324.4099957E-3	-1.0982653E+0	3.0019390E+0	25.3000011E+0
324.5850166E-3	-1.0766489E+0	3.0035551E+0	25.3999996E+0
324.7847361E-3	-1.0898250E+0	3.0053992E+0	25.5000000E+0
324.9783888E-3	-1.1073665E+0	3.0071873E+0	25.6000004E+0
325.1567857E-3	-1.1134508E+0	3.0088346E+0	25.7000008E+0
325.3471743E-3	-1.0925400E+0	3.0105926E+0	25.8000011E+0
325.5406234E-3	-1.0823477E+0	3.0123788E+0	25.8999996E+0
325.7852239E-3	-1.0745029E+0	3.0146373E+0	26.0000000E+0
325.9262902E-3	-1.1299877E+0	3.0159399E+0	26.1000004E+0
326.1177147E-3	-1.0777778E+0	3.0177074E+0	26.2000008E+0
326.3039695E-3	-1.0548415E+0	3.0194272E+0	26.3000011E+0
326.5087730E-3	-1.0849561E+0	3.0213183E+0	26.3999996E+0
326.6718567E-3	-1.1086518E+0	3.0228242E+0	26.5000000E+0
326.8701666E-3	-1.0995676E+0	3.0246553E+0	26.6000004E+0
327.0577325E-3	-1.0782562E+0	3.0263872E+0	26.7000008E+0
327.2601349E-3	-1.1238420E+0	3.0282561E+0	26.8000011E+0
327.4680334E-3	-1.0525481E+0	3.0301757E+0	26.8999996E+0
327.6522781E-3	-1.0401681E+0	3.0318770E+0	27.0000000E+0
327.8257778E-3	-1.0577285E+0	3.0334790E+0	27.1000004E+0
328.0339064E-3	-1.1009825E+0	3.0354008E+0	27.2000008E+0
328.2204277E-3	-1.0416965E+0	3.0371231E+0	27.3000011E+0
328.3997804E-3	-1.0539913E+0	3.0387791E+0	27.3999996E+0
328.6115335E-3	-1.0802686E+0	3.0407344E+0	27.5000000E+0
328.8083360E-3	-1.1477931E+0	3.0425516E+0	27.6000004E+0
328.9914400E-3	-1.1260548E+0	3.0442423E+0	27.7000008E+0
329.1841036E-3	-1.1309979E+0	3.0460213E+0	27.8000011E+0
329.3797442E-3	-1.0888592E+0	3.0478277E+0	27.8999996E+0
329.5475407E-3	-1.0863761E+0	3.0493771E+0	28.0000000E+0
329.7551844E-3	-1.1633950E+0	3.0512944E+0	28.1000004E+0
329.9294869E-3	-1.0811170E+0	3.0529038E+0	28.2000008E+0
330.1197499E-3	-1.0875401E+0	3.0546607E+0	28.3000011E+0
330.3036131E-3	-1.0496202E+0	3.0563584E+0	28.3999996E+0
330.5080541E-3	-1.1026043E+0	3.0582461E+0	28.5000000E+0
330.7030718E-3	-1.0841681E+0	3.0600468E+0	28.6000004E+0
330.9102250E-3	-1.1180533E+0	3.0619596E+0	28.7000008E+0
331.1095616E-3	-1.0930152E+0	3.0638002E+0	28.8000011E+0
331.3091580E-3	-1.0860452E+0	3.0656432E+0	28.8999996E+0
331.4902704E-3	-1.1066431E+0	3.0673155E+0	29.0000000E+0
331.6621121E-3	-1.1087917E+0	3.0689022E+0	29.1000004E+0
331.8663268E-3	-1.0610088E+0	3.0707879E+0	29.2000008E+0
332.0611897E-3	-1.0694783E+0	3.0725872E+0	29.3000011E+0
332.2526952E-3	-1.1323866E+0	3.0743554E+0	29.3999996E+0
332.4322121E-3	-1.1592914E+0	3.0760130E+0	29.5000000E+0
332.6370224E-3	-1.1253831E+0	3.0779042E+0	29.6000004E+0
332.8473264E-3	-1.1104404E+0	3.0798460E+0	29.7000008E+0
333.0205417E-3	-1.1112732E+0	3.0814454E+0	29.8000011E+0
333.1784591E-3	-1.0868531E+0	3.0829036E+0	29.8999996E+0
333.3723120E-3	-1.0234908E+0	3.0846936E+0	30.0000000E+0
NaN	NaN	NaN	30.1000004E+0
NaN	NaN	NaN	30.2000008E+0
333.9567568E-3	-1.1184985E+0	3.0900901E+0	30.3000011E+0
334.0628473E-3	-1.1040888E+0	3.0910697E+0	30.3999996E+0
334.0393941E-3	-1.0924079E+0	3.0908531E+0	30.5000000E+0
333.9475005E-3	-1.0766544E+0	3.0900046E+0	30.6000004E+0
333.7949021E-3	-1.0774232E+0	3.0885956E+0	30.7000008E+0
333.6252542E-3	-1.0550856E+0	3.0870291E+0	30.8000011E+0
333.4972535E-3	-1.0281165E+0	3.0858472E+0	30.8999996E+0
333.3677367E-3	-1.1258134E+0	3.0846513E+0	31.0000000E+0
333.2186951E-3	-1.0817186E+0	3.0832751E+0	31.1000004E+0
333.0534461E-3	-1.0855580E+0	3.0817493E+0	31.2000008E+0
332.8827876E-3	-1.0778402E+0	3.0801735E+0	31.3000011E+0
332.7318494E-3	-1.0890098E+0	3.0787798E+0	31.3999996E+0
332.5649786E-3	-1.0761848E+0	3.0772390E+0	31.5000000E+0
332.3867170E-3	-1.0590502E+0	3.0755930E+0	31.6000004E+0
332.2441379E-3	-1.0812702E+0	3.0742764E+0	31.7000008E+0
332.0806983E-3	-1.0953223E+0	3.0727673E+0	31.8000011E+0
331.9282908E-3	-1.1043559E+0	3.0713600E+0	31.8999996E+0
331.7207611E-3	-1.0851219E+0	3.0694438E+0	32.0000000E+0
331.5357594E-3	-997.1056791E-3	3.0677355E+0	32.1000023E+0
331.4011924E-3	-1.1002950E+0	3.0664930E+0	32.2000008E+0
331.2269089E-3	-1.0868286E+0	3.0648837E+0	32.2999992E+0
331.0439652E-3	-1.0723826E+0	3.0631945E+0	32.4000015E+0
330.8733453E-3	-1.0307359E+0	3.0616191E+0	32.5000000E+0
330.6868788E-3	-1.1038204E+0	3.0598973E+0	32.6000023E+0
330.5148819E-3	-1.0693847E+0	3.0583092E+0	32.7000008E+0
330.3446570E-3	-1.0414156E+0	3.0567374E+0	32.7999992E+0
330.1514565E-3	-1.0983334E+0	3.0549534E+0	32.9000015E+0
329.9980752E-3	-1.0927058E+0	3.0535372E+0	33.0000000E+0
329.8277471E-3	-1.0750421E+0	3.0519644E+0	33.1000023E+0
329.6231866E-3	-1.0847950E+0	3.0500756E+0	33.2000008E+0
329.4716875E-3	-1.1272490E+0	3.0486767E+0	33.2999992E+0
329.2840144E-3	-1.0754520E+0	3.0469438E+0	33.4000015E+0
329.1168754E-3	-1.0745796E+0	3.0454005E+0	33.5000000E+0
328.9499269E-3	-1.1320521E+0	3.0438590E+0	33.6000023E+0
328.7442245E-3	-1.0955421E+0	3.0419596E+0	33.7000008E+0
328.5981293E-3	-1.0763406E+0	3.0406106E+0	33.7999992E+0
328.4097757E-3	-1.0746311E+0	3.0388714E+0	33.9000015E+0
328.2501321E-3	-1.1241986E+0	3.0373973E+0	34.0000000E+0
328.0705515E-3	-1.0988678E+0	3.0357392E+0	34.1000023E+0
327.8616871E-3	-1.1251338E+0	3.0338106E+0	34.2000008E+0
327.6823842E-3	-1.0735316E+0	3.0321550E+0	34.2999992E+0
327.5246266E-3	-1.0563548E+0	3.0306983E+0	34.4000015E+0
327.3725639E-3	-1.0905785E+0	3.0292942E+0	34.5000000E+0
327.1756574E-3	-1.0708161E+0	3.0274761E+0	34.6000023E+0
326.9995907E-3	-1.0208084E+0	3.0258503E+0	34.7000008E+0
326.8174928E-3	-1.0417901E+0	3.0241689E+0	34.7999992E+0
326.6543834E-3	-1.0645144E+0	3.0226628E+0	34.9000015E+0
326.5044435E-3	-1.1191714E+0	3.0212783E+0	35.0000000E+0
326.2970322E-3	-1.1069463E+0	3.0193632E+0	35.1000023E+0
326.1073747E-3	-1.0723742E+0	3.0176120E+0	35.2000008E+0
325.9404033E-3	-1.0733695E+0	3.0160702E+0	35.2999992E+0
325.7847044E-3	-1.0779934E+0	3.0146325E+0	35.4000015E+0
325.6161889E-3	-1.0616942E+0	3.0130765E+0	35.5000000E+0
325.4498935E-3	-1.1077834E+0	3.0115410E+0	35.6000023E+0
325.2649544E-3	-1.1026481E+0	3.0098334E+0	35.7000008E+0
325.0662468E-3	-1.0698992E+0	3.0079986E+0	35.7999992E+0
324.9196135E-3	-1.1206056E+0	3.0066446E+0	35.9000015E+0
324.7448233E-3	-1.1663770E+0	3.0050307E+0	36.0000000E+0
324.5462672E-3	-1.0997409E+0	3.0031973E+0	36.1000023E+0
324.3909525E-3	-1.1388627E+0	3.0017632E+0	36.2000008E+0
324.1914416E-3	-1.1212943E+0	2.9999210E+0	36.2999992E+0
324.0068717E-3	-1.0618498E+0	2.9982167E+0	36.4000015E+0
323.8271386E-3	-1.0995187E+0	2.9965571E+0	36.5000000E+0
323.6555573E-3	-1.0522091E+0	2.9949728E+0	36.6000023E+0
323.4511633E-3	-1.0995986E+0	2.9930855E+0	36.7000008E+0
323.2932973E-3	-1.0910482E+0	2.9916279E+0	36.7999992E+0
323.1326146E-3	-1.0889385E+0	2.9901442E+0	36.9000015E+0
322.9366433E-3	-1.0675108E+0	2.9883347E+0	37.0000000E+0
322.7428859E-3	-1.1290036E+0	2.9865456E+0	37.1000023E+0
322.5581049E-3	-1.1072138E+0	2.9848394E+0	37.2000008E+0
322.3983993E-3	-1.1089111E+0	2.9833647E+0	37.2999992E+0
322.2263319E-3	-1.1556477E+0	2.9817759E+0	37.4000015E+0
322.0180581E-3	-1.1142686E+0	2.9798528E+0	37.5000000E+0
321.8398227E-3	-1.0828569E+0	2.9782070E+0	37.6000023E+0
321.6690989E-3	-1.0566559E+0	2.9766306E+0	37.7000008E+0
321.4737510E-3	-1.0832512E+0	2.9748269E+0	37.7999992E+0
321.3158778E-3	-1.1272657E+0	2.9733691E+0	37.9000015E+0
321.1378625E-3	-1.0719631E+0	2.9717254E+0	38.0000000E+0
320.9535507E-3	-1.1084163E+0	2.9700236E+0	38.1000023E+0
320.7606447E-3	-1.1112464E+0	2.9682423E+0	38.2000008E+0
320.5841562E-3	-1.0862063E+0	2.9666127E+0	38.2999992E+0
320.3967054E-3	-1.0651416E+0	2.9648819E+0	38.4000015E+0
320.2075233E-3	-1.1099923E+0	2.9631350E+0	38.5000000E+0
320.0440055E-3	-1.0919345E+0	2.9616252E+0	38.6000023E+0
319.8635294E-3	-1.1354427E+0	2.9599587E+0	38.7000008E+0
319.6722457E-3	-1.0820516E+0	2.9581925E+0	38.7999992E+0
319.4920785E-3	-1.0522043E+0	2.9565289E+0	38.9000015E+0
319.3035886E-3	-1.0558429E+0	2.9547884E+0	39.0000000E+0
319.1172723E-3	-1.0670694E+0	2.9530681E+0	39.1000023E+0
318.9500921E-3	-1.0986564E+0	2.9515244E+0	39.2000008E+0
318.7745908E-3	-1.1242542E+0	2.9499039E+0	39.2999992E+0
318.6000592E-3	-1.1284873E+0	2.9482923E+0	39.4000015E+0
318.4097029E-3	-1.1188033E+0	2.9465347E+0	39.5000000E+0
318.2188415E-3	-1.0930143E+0	2.9447723E+0	39.6000023E+0
318.0193496E-3	-1.0807243E+0	2.9429303E+0	39.7000008E+0
317.8550329E-3	-1.0857556E+0	2.9414130E+0	39.7999992E+0
317.6956055E-3	-1.0938480E+0	2.9399410E+0	39.9000015E+0
317.4784486E-3	-1.0419454E+0	2.9379358E+0	40.0000000E+0
317.3056422E-3	-1.0903540E+0	2.9363402E+0	40.1000023E+0
317.1437825E-3	-1.1091861E+0	2.9348456E+0	40.2000008E+0
316.9441743E-3	-1.1121872E+0	2.9330025E+0	40.2999992E+0
316.7482974E-3	-1.1058407E+0	2.9311939E+0	40.4000015E+0
316.5793172E-3	-1.1265646E+0	2.9296336E+0	40.5000000E+0
316.3954344E-3	-1.0886778E+0	2.9279357E+0	40.6000023E+0
316.2307044E-3	-1.0814221E+0	2.9264146E+0	40.7000008E+0
316.0334208E-3	-1.0552132E+0	2.9245930E+0	40.7999992E+0
315.8642193E-3	-1.0995171E+0	2.9230306E+0	40.9000015E+0
315.6868822E-3	-1.1067839E+0	2.9213932E+0	41.0000000E+0
315.4934622E-3	-1.0897860E+0	2.9196072E+0	41.1000023E+0
315.2883118E-3	-1.0904662E+0	2.9177129E+0	41.2000008E+0
315.0973404E-3	-1.0706462E+0	2.9159496E+0	41.2999992E+0
314.9610706E-3	-1.1018182E+0	2.9146913E+0	41.4000015E+0
314.7476192E-3	-1.1126804E+0	2.9127204E+0	41.5000000E+0
314.5503663E-3	-1.0928447E+0	2.9108990E+0	41.6000023E+0
314.3627239E-3	-1.0728749E+0	2.9091664E+0	41.7000008E+0
314.2036932E-3	-1.1098708E+0	2.9076980E+0	41.7999992E+0
314.0035962E-3	-1.1119080E+0	2.9058504E+0	41.9000015E+0
313.7883801E-3	-1.1046351E+0	2.9038632E+0	42.0000000E+0
313.6283868E-3	-1.0514038E+0	2.9023858E+0	42.1000023E+0
313.4307306E-3	-1.0803071E+0	2.9005608E+0	42.2000008E+0
313.2411893E-3	-1.0944025E+0	2.8988106E+0	42.2999992E+0
313.0698783E-3	-1.1474986E+0	2.8972288E+0	42.4000015E+0
312.8803153E-3	-1.1102917E+0	2.8954784E+0	42.5000000E+0
312.7150444E-3	-1.0894828E+0	2.8939524E+0	42.6000023E+0
312.5101934E-3	-1.0645870E+0	2.8920609E+0	42.7000008E+0
312.3257900E-3	-1.1050822E+0	2.8903582E+0	42.7999992E+0
312.1304427E-3	-1.1065588E+0	2.8885544E+0	42.9000015E+0
311.9444544E-3	-1.1245960E+0	2.8868371E+0	43.0000000E+0
311.7852589E-3	-1.1260161E+0	2.8853671E+0	43.1000023E+0
311.5808922E-3	-1.1063357E+0	2.8834801E+0	43.2000008E+0
311.3889867E-3	-1.1718043E+0	2.8817081E+0	43.2999992E+0
311.1859362E-3	-1.1421177E+0	2.8798332E+0	43.4000015E+0
310.9838477E-3	-1.0364086E+0	2.8779672E+0	43.5000000E+0
310.8116396E-3	-1.0778380E+0	2.8763771E+0	43.6000023E+0
310.6297277E-3	-1.1268057E+0	2.8746974E+0	43.7000008E+0
310.4439948E-3	-1.0981707E+0	2.8729824E+0	43.7999992E+0
310.2494921E-3	-1.0701691E+0	2.8711864E+0	43.9000015E+0
310.0609698E-3	-1.0674956E+0	2.8694457E+0	44.0000000E+0
309.8677672E-3	-1.0224316E+0	2.8676617E+0	44.1000023E+0
309.6713986E-3	-1.0640912E+0	2.8658486E+0	44.2000008E+0
309.4825093E-3	-1.0789720E+0	2.8641044E+0	44.2999992E+0
309.2991433E-3	-1.0937439E+0	2.8624113E+0	44.4000015E+0
309.1175829E-3	-1.0501201E+0	2.8607348E+0	44.5000000E+0
308.9398749E-3	-1.0635280E+0	2.8590940E+0	44.6000023E+0
308.7499637E-3	-1.0611898E+0	2.8573404E+0	44.7000008E+0
308.5580706E-3	-1.0743110E+0	2.8555685E+0	44.7999992E+0
308.3839027E-3	-1.1073616E+0	2.8539603E+0	44.9000015E+0
308.1860783E-3	-1.0306663E+0	2.8521337E+0	45.0000000E+0
308.0159456E-3	-1.0660454E+0	2.8505627E+0	45.1000023E+0
307.8289160E-3	-1.0525292E+0	2.8488358E+0	45.2000008E+0
307.6388272E-3	-1.0303535E+0	2.8470806E+0	45.2999992E+0
307.4433922E-3	-1.0782552E+0	2.8452760E+0	45.4000015E+0
307.2648721E-3	-1.0625604E+0	2.8436276E+0	45.5000000E+0
307.0876236E-3	-1.0835449E+0	2.8419910E+0	45.6000023E+0
306.8828447E-3	-1.0605971E+0	2.8401001E+0	45.7000008E+0
306.6807914E-3	-1.0313510E+0	2.8382345E+0	45.7999992E+0
306.4737019E-3	-1.0078346E+0	2.8363223E+0	45.9000015E+0
306.3121259E-3	-1.0194744E+0	2.8348303E+0	46.0000000E+0
306.0921155E-3	-1.0190899E+0	2.8327989E+0	46.1000023E+0
305.9136505E-3	-1.0594697E+0	2.8311510E+0	46.2000008E+0
305.7368525E-3	-954.4059946E-3	2.8295185E+0	46.2999992E+0
305.5340042E-3	-1.0151802E+0	2.8276455E+0	46.4000015E+0
305.3581063E-3	-980.1832191E-3	2.8260213E+0	46.5000000E+0
305.1647405E-3	-981.3999926E-3	2.8242358E+0	46.6000023E+0
304.9617369E-3	-961.4825989E-3	2.8223614E+0	46.7000008E+0
304.7698459E-3	-967.8184666E-3	2.8205895E+0	46.7999992E+0
304.5791393E-3	-935.0414145E-3	2.8188286E+0	46.9000015E+0
304.3700068E-3	-918.4682562E-3	2.8168976E+0	47.0000000E+0
304.1789533E-3	-909.2571541E-3	2.8151335E+0	47.1000023E+0
303.9666745E-3	-910.6522821E-3	2.8131734E+0	47.2000008E+0
303.7745763E-3	-866.5795370E-3	2.8113996E+0	47.2999992E+0
303.5900902E-3	-916.4979327E-3	2.8096961E+0	47.4000015E+0
303.4045583E-3	-912.0661040E-3	2.8079830E+0	47.5000000E+0
303.2010821E-3	-869.1620721E-3	2.8061042E+0	47.6000023E+0
303.0132123E-3	-819.3983233E-3	2.8043695E+0	47.7000008E+0
302.8013698E-3	-804.0614525E-3	2.8024134E+0	47.7999992E+0
302.6334473E-3	-848.1922266E-3	2.8008629E+0	47.9000015E+0
302.4176922E-3	-794.9982829E-3	2.7988707E+0	48.0000000E+0
302.2372163E-3	-772.2761519E-3	2.7972042E+0	48.1000023E+0
302.0438421E-3	-750.5114198E-3	2.7954187E+0	48.2000008E+0
301.8448926E-3	-730.0350846E-3	2.7935816E+0	48.2999992E+0
301.6449795E-3	-701.5487343E-3	2.7917357E+0	48.4000015E+0
301.4420050E-3	-694.1935490E-3	2.7898615E+0	48.5000000E+0
301.2040591E-3	-586.8770760E-3	2.7876644E+0	48.6000023E+0
301.0510668E-3	-605.7869439E-3	2.7862518E+0	48.7000008E+0
300.8619305E-3	-601.5016016E-3	2.7845054E+0	48.7999992E+0
300.6620336E-3	-549.7342735E-3	2.7826596E+0	48.9000015E+0
300.4526855E-3	-504.6795209E-3	2.7807266E+0	49.0000000E+0
300.2531885E-3	-492.7317475E-3	2.7788845E+0	49.1000023E+0
300.0670561E-3	-487.2741841E-3	2.7771658E+0	49.2000008E+0
299.8631509E-3	-421.8885150E-3	2.7752830E+0	49.2999992E+0
299.7046553E-3	-468.2130997E-3	2.7738195E+0	49.4000015E+0
299.4819108E-3	-371.3869026E-3	2.7717628E+0	49.5000000E+0
299.2946712E-3	-337.1688752E-3	2.7700339E+0	49.6000023E+0
299.0773260E-3	-327.4501673E-3	2.7680270E+0	49.7000008E+0
298.8927818E-3	-334.7728344E-3	2.7663230E+0	49.7999992E+0
298.7108599E-3	-323.4253569E-3	2.7646432E+0	49.9000015E+0
298.5304943E-3	-263.5584801E-3	2.7629778E+0	50.0000000E+0
298.3284685E-3	-322.0539623E-3	2.7611124E+0	50.1000023E+0
298.1738578E-3	-273.2566892E-3	2.7596847E+0	50.2000008E+0
297.9556500E-3	-268.8750511E-3	2.7576699E+0	50.2999992E+0
297.6745621E-3	-274.2445049E-3	2.7550744E+0	50.4000015E+0
297.5852354E-3	-315.5808108E-3	2.7542496E+0	50.5000000E+0
297.3445276E-3	-302.7270483E-3	2.7520270E+0	50.6000023E+0
297.1742429E-3	-278.2364567E-3	2.7504547E+0	50.7000008E+0
296.9566810E-3	-386.0974382E-3	2.7484458E+0	50.7999992E+0
296.7903705E-3	-399.0417708E-3	2.7469102E+0	50.9000015E+0
296.5955472E-3	-414.0839615E-3	2.7451112E+0	51.0000000E+0
296.3981748E-3	-510.7932758E-3	2.7432888E+0	51.1000023E+0
296.1993393E-3	-480.9618540E-3	2.7414528E+0	51.2000008E+0
296.0328529E-3	-617.3802057E-3	2.7399155E+0	51.2999992E+0
295.8582772E-3	-648.1361093E-3	2.7383036E+0	51.4000015E+0
295.6369522E-3	-633.6209094E-3	2.7362599E+0	51.5000000E+0
295.4601984E-3	-747.0757839E-3	2.7346279E+0	51.6000023E+0
295.2671074E-3	-766.7378865E-3	2.7328449E+0	51.7000008E+0
295.0645033E-3	-806.8819106E-3	2.7309742E+0	51.7999992E+0
294.8699347E-3	-816.6100996E-3	2.7291776E+0	51.9000015E+0
294.6994629E-3	-882.4662242E-3	2.7276035E+0	52.0000000E+0
294.4919505E-3	-950.5250192E-3	2.7256874E+0	52.1000023E+0
294.3137631E-3	-949.1517470E-3	2.7240421E+0	52.2000008E+0
294.1116456E-3	-1.0332347E+0	2.7221759E+0	52.2999992E+0
293.9275891E-3	-1.1036293E+0	2.7204764E+0	52.4000015E+0
293.7315939E-3	-1.1006777E+0	2.7186666E+0	52.5000000E+0
293.5297237E-3	-1.0975598E+0	2.7168026E+0	52.6000023E+0
293.3453901E-3	-1.0901333E+0	2.7151006E+0	52.7000008E+0
293.1287544E-3	-1.1499993E+0	2.7131002E+0	52.7999992E+0
292.9639422E-3	-1.2217219E+0	2.7115784E+0	52.9000015E+0
292.7689932E-3	-1.2439210E+0	2.7097783E+0	53.0000000E+0
292.5514257E-3	-1.2434215E+0	2.7077694E+0	53.1000023E+0
292.3644291E-3	-1.2452501E+0	2.7060427E+0	53.2000008E+0
292.1501280E-3	-1.2395377E+0	2.7040640E+0	53.2999992E+0
291.9670793E-3	-1.2802183E+0	2.7023738E+0	53.4000015E+0
291.8037056E-3	-1.2977547E+0	2.7008652E+0	53.5000000E+0
291.5835533E-3	-1.3212408E+0	2.6988324E+0	53.6000023E+0
291.4031889E-3	-1.3230833E+0	2.6971670E+0	53.7000008E+0
291.1999926E-3	-1.2471588E+0	2.6952908E+0	53.7999992E+0
290.9889461E-3	-1.2756080E+0	2.6933421E+0	53.9000015E+0
290.8021272E-3	-1.2948611E+0	2.6916171E+0	54.0000000E+0
290.5999560E-3	-1.2847018E+0	2.6897503E+0	54.1000023E+0
290.4058388E-3	-1.3089667E+0	2.6879579E+0	54.2000008E+0
290.2008995E-3	-1.2635881E+0	2.6860656E+0	54.2999992E+0
290.0234719E-3	-1.2804719E+0	2.6844273E+0	54.4000015E+0
289.8285034E-3	-1.2839443E+0	2.6826270E+0	54.5000000E+0
289.6376945E-3	-1.3618265E+0	2.6808651E+0	54.6000023E+0
289.4412199E-3	-1.3198507E+0	2.6790510E+0	54.7000008E+0
289.2388940E-3	-1.2230370E+0	2.6771828E+0	54.7999992E+0
289.0424277E-3	-1.2158113E+0	2.6753687E+0	54.9000015E+0
288.8428989E-3	-1.2357654E+0	2.6735263E+0	55.0000000E+0
288.6282553E-3	-1.2484466E+0	2.6715444E+0	55.1000023E+0
288.4373789E-3	-1.2566625E+0	2.6697819E+0	55.2000008E+0
288.2230504E-3	-1.2964541E+0	2.6678029E+0	55.2999992E+0
288.0287824E-3	-1.3074861E+0	2.6660091E+0	55.4000015E+0
287.8313748E-3	-1.2627260E+0	2.6641863E+0	55.5000000E+0
287.6391543E-3	-1.2872693E+0	2.6624114E+0	55.6000023E+0
287.4432176E-3	-1.1948662E+0	2.6606022E+0	55.7000008E+0
287.2316555E-3	-1.2290592E+0	2.6586487E+0	55.7999992E+0
287.0311860E-3	-1.2581659E+0	2.6567977E+0	55.9000015E+0
286.8489652E-3	-1.2745722E+0	2.6551151E+0	56.0000000E+0
286.6710740E-3	-1.2849017E+0	2.6534725E+0	56.1000023E+0
286.4554986E-3	-1.2430236E+0	2.6514820E+0	56.2000008E+0
286.2358188E-3	-1.2408435E+0	2.6494535E+0	56.2999992E+0
286.0649481E-3	-1.2302850E+0	2.6478758E+0	56.4000015E+0
285.8415316E-3	-1.2231648E+0	2.6458128E+0	56.5000000E+0
285.6502082E-3	-1.2254001E+0	2.6440462E+0	56.6000023E+0
285.4409712E-3	-1.2055251E+0	2.6421142E+0	56.7000008E+0
285.2230182E-3	-1.1997624E+0	2.6401017E+0	56.7999992E+0
285.0514436E-3	-1.2376987E+0	2.6385175E+0	56.9000015E+0
284.8371939E-3	-1.2437707E+0	2.6365392E+0	57.0000000E+0
284.6285111E-3	-1.2134930E+0	2.6346123E+0	57.1000023E+0
284.4441926E-3	-1.2321845E+0	2.6329104E+0	57.2000008E+0
284.2660366E-3	-1.2614066E+0	2.6312653E+0	57.2999992E+0
284.0394542E-3	-1.1604783E+0	2.6291732E+0	57.4000015E+0
283.8482040E-3	-1.1649563E+0	2.6274072E+0	57.5000000E+0
283.6451217E-3	-1.1693477E+0	2.6255321E+0	57.6000023E+0
283.4389941E-3	-1.2101824E+0	2.6236288E+0	57.7000008E+0
283.2454205E-3	-1.1661796E+0	2.6218414E+0	57.7999992E+0
283.0364260E-3	-1.1456784E+0	2.6199116E+0	57.9000015E+0
282.8027075E-3	-1.1234271E+0	2.6177535E+0	58.0000000E+0
282.6086786E-3	-1.1627500E+0	2.6159619E+0	58.1000023E+0
282.4319906E-3	-1.1214414E+0	2.6143305E+0	58.2000008E+0
282.2155527E-3	-1.1069365E+0	2.6123320E+0	58.2999992E+0
282.0267824E-3	-1.1558400E+0	2.6105889E+0	58.4000015E+0
281.8102372E-3	-1.1425637E+0	2.6085894E+0	58.5000000E+0
281.6233651E-3	-1.1035428E+0	2.6068639E+0	58.6000023E+0
281.4483062E-3	-1.1869902E+0	2.6052475E+0	58.7000008E+0
281.2331990E-3	-1.1592994E+0	2.6032613E+0	58.7999992E+0
281.0118556E-3	-1.1422915E+0	2.6012175E+0	58.9000015E+0
280.8328398E-3	-1.1285887E+0	2.5995645E+0	59.0000000E+0
280.6109869E-3	-1.1597599E+0	2.5975160E+0	59.1000023E+0
280.4361520E-3	-1.1630937E+0	2.5959017E+0	59.2000008E+0
280.2145879E-3	-1.1353810E+0	2.5938558E+0	59.2999992E+0
280.0341995E-3	-1.1485523E+0	2.5921902E+0	59.4000015E+0
279.8310931E-3	-1.1318041E+0	2.5903148E+0	59.5000000E+0
279.6435524E-3	-1.1739246E+0	2.5885831E+0	59.6000023E+0
279.4343897E-3	-1.1200688E+0	2.5866518E+0	59.7000008E+0
279.2433524E-3	-1.1709155E+0	2.5848878E+0	59.7999992E+0
279.0386874E-3	-1.1350097E+0	2.5829980E+0	59.9000015E+0
278.8315029E-3	-1.0931043E+0	2.5810850E+0	60.0000000E+0
278.6474028E-3	-1.1052827E+0	2.5793851E+0	60.1000023E+0
