Magnetic Field (T)	Diode Voltage (V)	Hall probe (V)	Acquisition Time 		
Tesla	Volts	Volts	Seconds		
NaN	NaN	NaN	0.0000000E+0
NaN	NaN	NaN	100.0000015E-3
277.7504670E-3	-919.1048651E-3	2.5711031E+0	200.0000030E-3
277.7386542E-3	-938.3288101E-3	2.5709940E+0	300.0000119E-3
277.8173297E-3	-925.4610685E-3	2.5717205E+0	400.0000060E-3
277.9292916E-3	-912.0683427E-3	2.5727543E+0	500.0000000E-3
278.0877665E-3	-965.6764015E-3	2.5742176E+0	600.0000238E-3
278.2539211E-3	-918.9817167E-3	2.5757518E+0	699.9999881E-3
278.4381659E-3	-983.2737985E-3	2.5774531E+0	800.0000119E-3
278.5511836E-3	-926.9123141E-3	2.5784966E+0	900.0000358E-3
278.7567838E-3	-931.0596968E-3	2.5803950E+0	1.0000000E+0
278.9331806E-3	-965.3796993E-3	2.5820238E+0	1.1000000E+0
279.0580143E-3	-904.8149004E-3	2.5831765E+0	1.2000000E+0
279.2617592E-3	-959.9955133E-3	2.5850578E+0	1.3000001E+0
279.4424493E-3	-955.0926153E-3	2.5867262E+0	1.4000000E+0
279.6350179E-3	-958.2412363E-3	2.5885043E+0	1.5000000E+0
279.8074713E-3	-930.6074760E-3	2.5900967E+0	1.6000000E+0
279.9481633E-3	-900.8984820E-3	2.5913958E+0	1.7000000E+0
280.1665096E-3	-903.0786156E-3	2.5934119E+0	1.8000001E+0
280.3333351E-3	-893.9566908E-3	2.5949523E+0	1.9000000E+0
280.4859398E-3	-913.1432156E-3	2.5963614E+0	2.0000000E+0
280.7042011E-3	-925.9909222E-3	2.5983767E+0	2.1000001E+0
280.8575700E-3	-909.7138523E-3	2.5997929E+0	2.2000000E+0
281.0193520E-3	-826.5929451E-3	2.6012867E+0	2.3000000E+0
281.1999365E-3	-839.2812696E-3	2.6029542E+0	2.4000001E+0
281.3751725E-3	-863.6004446E-3	2.6045722E+0	2.5000000E+0
281.5807090E-3	-908.5051722E-3	2.6064701E+0	2.6000001E+0
281.7526373E-3	-854.0874974E-3	2.6080576E+0	2.7000000E+0
281.9489169E-3	-914.1412139E-3	2.6098700E+0	2.8000000E+0
282.1137537E-3	-948.8734859E-3	2.6113920E+0	2.9000001E+0
282.2885970E-3	-890.4618476E-3	2.6130064E+0	3.0000000E+0
282.4837722E-3	-867.4137066E-3	2.6148086E+0	3.1000001E+0
282.6585457E-3	-885.8759962E-3	2.6164224E+0	3.2000000E+0
282.8274494E-3	-920.9123932E-3	2.6179820E+0	3.3000000E+0
283.0147913E-3	-892.3223914E-3	2.6197118E+0	3.4000001E+0
283.1885480E-3	-864.5762053E-3	2.6213162E+0	3.5000000E+0
283.3896108E-3	-898.8439229E-3	2.6231728E+0	3.6000001E+0
283.5713266E-3	-864.8207309E-3	2.6248507E+0	3.7000000E+0
283.7553685E-3	-853.0564085E-3	2.6265500E+0	3.8000000E+0
283.9089502E-3	-794.3986454E-3	2.6279681E+0	3.9000001E+0
284.0975736E-3	-874.6638630E-3	2.6297098E+0	4.0000000E+0
284.3023928E-3	-915.6874450E-3	2.6316010E+0	4.0999999E+0
284.4699552E-3	-910.6896542E-3	2.6331482E+0	4.2000003E+0
284.6541765E-3	-908.6085658E-3	2.6348493E+0	4.3000002E+0
284.8225015E-3	-820.1678641E-3	2.6364035E+0	4.4000001E+0
285.0298055E-3	-819.5818362E-3	2.6383177E+0	4.5000000E+0
285.2137972E-3	-816.1774959E-3	2.6400166E+0	4.5999999E+0
285.4021441E-3	-891.4280138E-3	2.6417557E+0	4.7000003E+0
285.5750477E-3	-831.9043729E-3	2.6433522E+0	4.8000002E+0
285.7742039E-3	-839.1883267E-3	2.6451912E+0	4.9000001E+0
285.9727026E-3	-854.3679096E-3	2.6470240E+0	5.0000000E+0
286.1297456E-3	-801.2074084E-3	2.6484741E+0	5.0999999E+0
286.3191953E-3	-793.5907575E-3	2.6502234E+0	5.2000003E+0
286.4772847E-3	-769.5382013E-3	2.6516831E+0	5.3000002E+0
286.6876848E-3	-801.8977689E-3	2.6536259E+0	5.4000001E+0
286.8835667E-3	-775.1551417E-3	2.6554346E+0	5.5000000E+0
287.0491001E-3	-760.6831377E-3	2.6569631E+0	5.5999999E+0
287.2547969E-3	-790.4238296E-3	2.6588624E+0	5.7000003E+0
287.4260380E-3	-775.6271911E-3	2.6604436E+0	5.8000002E+0
287.6008137E-3	-687.2257856E-3	2.6620574E+0	5.9000001E+0
287.7586272E-3	-686.7152498E-3	2.6635146E+0	6.0000000E+0
287.9743207E-3	-734.5880198E-3	2.6655062E+0	6.0999999E+0
288.1542167E-3	-755.1751362E-3	2.6671673E+0	6.2000003E+0
288.3365961E-3	-761.3503114E-3	2.6688513E+0	6.3000002E+0
288.5094729E-3	-726.9192087E-3	2.6704476E+0	6.4000001E+0
288.7078179E-3	-781.7734280E-3	2.6722790E+0	6.5000000E+0
288.8839427E-3	-717.8395151E-3	2.6739053E+0	6.5999999E+0
289.0353373E-3	-648.3756520E-3	2.6753032E+0	6.7000003E+0
289.2431326E-3	-687.2595617E-3	2.6772219E+0	6.8000002E+0
289.4275570E-3	-691.8902293E-3	2.6789248E+0	6.9000001E+0
289.6080806E-3	-606.6373365E-3	2.6805917E+0	7.0000000E+0
289.8097446E-3	-632.8018950E-3	2.6824538E+0	7.0999999E+0
289.9684027E-3	-602.6581877E-3	2.6839188E+0	7.2000003E+0
290.1683549E-3	-638.3362866E-3	2.6857651E+0	7.3000002E+0
290.3841236E-3	-638.6020491E-3	2.6877574E+0	7.4000001E+0
290.5610596E-3	-583.9034876E-3	2.6893911E+0	7.5000000E+0
290.7479674E-3	-621.8193644E-3	2.6911170E+0	7.5999999E+0
290.9066244E-3	-572.1259185E-3	2.6925819E+0	7.7000003E+0
291.1094883E-3	-538.0293028E-3	2.6944551E+0	7.8000002E+0
291.3014055E-3	-576.5240220E-3	2.6962272E+0	7.9000001E+0
291.4721980E-3	-463.0367687E-3	2.6978042E+0	8.0000000E+0
291.6381845E-3	-417.1488008E-3	2.6993369E+0	8.1000004E+0
291.8420680E-3	-466.7113901E-3	2.7012195E+0	8.1999998E+0
292.0070494E-3	-431.4187322E-3	2.7027428E+0	8.3000002E+0
292.2042224E-3	-382.9500552E-3	2.7045635E+0	8.4000006E+0
292.3970871E-3	-404.2730122E-3	2.7063443E+0	8.5000000E+0
292.5680310E-3	-412.0421435E-3	2.7079227E+0	8.6000004E+0
292.7642649E-3	-330.9774254E-3	2.7097347E+0	8.6999998E+0
292.9207163E-3	-295.2270376E-3	2.7111793E+0	8.8000002E+0
293.0932781E-3	-284.5313723E-3	2.7127727E+0	8.9000006E+0
293.3170818E-3	-261.9491836E-3	2.7148392E+0	9.0000000E+0
293.4682792E-3	-219.1477665E-3	2.7162353E+0	9.1000004E+0
293.6739218E-3	-211.1149670E-3	2.7181341E+0	9.1999998E+0
293.8535370E-3	-155.7866452E-3	2.7197926E+0	9.3000002E+0
294.0081316E-3	-82.1600069E-3	2.7212201E+0	9.4000006E+0
294.2033967E-3	-72.2386951E-3	2.7230231E+0	9.5000000E+0
294.3864052E-3	-50.6195569E-3	2.7247129E+0	9.6000004E+0
294.5417919E-3	19.6439975E-3	2.7261477E+0	9.6999998E+0
294.7218820E-3	44.8499778E-3	2.7278105E+0	9.8000002E+0
294.9393456E-3	-4.1922595E-3	2.7298185E+0	9.9000006E+0
295.0951043E-3	160.9364483E-3	2.7312567E+0	10.0000000E+0
295.2757073E-3	192.4780022E-3	2.7329244E+0	10.1000004E+0
295.4720590E-3	198.8315887E-3	2.7347374E+0	10.1999998E+0
295.6452995E-3	274.5593194E-3	2.7363370E+0	10.3000002E+0
295.8463556E-3	290.7527212E-3	2.7381935E+0	10.4000006E+0
296.0035758E-3	388.2311224E-3	2.7396452E+0	10.5000000E+0
296.2005169E-3	444.9474125E-3	2.7414637E+0	10.6000004E+0
296.3782546E-3	490.2929042E-3	2.7431048E+0	10.6999998E+0
296.5252984E-3	552.1265501E-3	2.7444626E+0	10.8000002E+0
296.7113655E-3	672.1774837E-3	2.7461807E+0	10.9000006E+0
296.8909019E-3	708.9458428E-3	2.7478384E+0	11.0000000E+0
297.0992557E-3	804.2345882E-3	2.7497623E+0	11.1000004E+0
297.0719624E-3	915.2263275E-3	2.7495103E+0	11.1999998E+0
297.3154567E-3	994.5959552E-3	2.7517586E+0	11.3000002E+0
297.5823037E-3	1.0109610E+0	2.7542226E+0	11.4000006E+0
297.7741410E-3	1.1138430E+0	2.7559939E+0	11.5000000E+0
297.9373811E-3	1.1909624E+0	2.7575012E+0	11.6000004E+0
298.1230013E-3	1.2634085E+0	2.7592152E+0	11.6999998E+0
298.3027763E-3	1.3351854E+0	2.7608751E+0	11.8000002E+0
298.4446621E-3	1.3678600E+0	2.7621852E+0	11.9000006E+0
298.6135826E-3	1.4688850E+0	2.7637450E+0	12.0000000E+0
298.8200141E-3	1.5379427E+0	2.7656511E+0	12.1000004E+0
298.9958016E-3	1.5464912E+0	2.7672743E+0	12.1999998E+0
299.1799183E-3	1.5846292E+0	2.7689743E+0	12.3000002E+0
299.3668149E-3	1.6186743E+0	2.7707000E+0	12.4000006E+0
299.5828813E-3	1.5309064E+0	2.7726951E+0	12.5000000E+0
299.7452494E-3	1.5768624E+0	2.7741944E+0	12.6000004E+0
299.9425369E-3	1.5489205E+0	2.7760160E+0	12.6999998E+0
300.1391317E-3	1.4476306E+0	2.7778313E+0	12.8000002E+0
300.3314394E-3	1.3293007E+0	2.7796070E+0	12.9000006E+0
300.5463388E-3	1.1576486E+0	2.7815913E+0	13.0000000E+0
300.7562786E-3	1.0036441E+0	2.7835298E+0	13.1000004E+0
300.9773343E-3	719.0801886E-3	2.7855710E+0	13.1999998E+0
301.1961230E-3	500.6239786E-3	2.7875912E+0	13.3000002E+0
301.4529215E-3	172.6581010E-3	2.7899623E+0	13.4000006E+0
301.7078374E-3	-170.1115541E-3	2.7923161E+0	13.5000000E+0
301.9436057E-3	-560.1730899E-3	2.7944931E+0	13.6000004E+0
302.1945814E-3	-967.4988614E-3	2.7968105E+0	13.6999998E+0
302.3945582E-3	-1.3295210E+0	2.7986570E+0	13.8000002E+0
302.6532657E-3	-1.7699120E+0	2.8010459E+0	13.9000006E+0
302.8978086E-3	-2.2462044E+0	2.8033039E+0	14.0000000E+0
303.1550742E-3	-2.6524858E+0	2.8056794E+0	14.1000004E+0
303.4066901E-3	-3.0701636E+0	2.8080027E+0	14.1999998E+0
303.6330530E-3	-3.4595732E+0	2.8100928E+0	14.3000002E+0
303.8716485E-3	-3.8453346E+0	2.8122959E+0	14.4000006E+0
304.0923629E-3	-4.1054305E+0	2.8143339E+0	14.5000000E+0
304.3235849E-3	-4.3326580E+0	2.8164689E+0	14.6000004E+0
304.5460039E-3	-4.5652820E+0	2.8185227E+0	14.6999998E+0
304.7311758E-3	-4.7228204E+0	2.8202325E+0	14.8000002E+0
304.9222518E-3	-4.7910247E+0	2.8219968E+0	14.9000006E+0
305.1141292E-3	-4.8195425E+0	2.8237685E+0	15.0000000E+0
305.3046280E-3	-4.8196656E+0	2.8255275E+0	15.1000004E+0
305.4779389E-3	-4.8711813E+0	2.8271278E+0	15.1999998E+0
305.6798761E-3	-4.7979200E+0	2.8289924E+0	15.3000002E+0
305.8198564E-3	-4.5788302E+0	2.8302849E+0	15.4000006E+0
306.0103395E-3	-4.5557641E+0	2.8320438E+0	15.5000000E+0
306.1983412E-3	-4.4566691E+0	2.8337797E+0	15.6000004E+0
306.3490118E-3	-4.3075397E+0	2.8351709E+0	15.6999998E+0
306.5457138E-3	-4.0970511E+0	2.8369872E+0	15.8000002E+0
306.6895197E-3	-3.9667367E+0	2.8383150E+0	15.9000006E+0
306.8811133E-3	-3.7872140E+0	2.8400841E+0	16.0000000E+0
307.0312053E-3	-3.6193268E+0	2.8414700E+0	16.1000004E+0
307.2037157E-3	-3.4598509E+0	2.8430629E+0	16.2000008E+0
307.3600409E-3	-3.3424548E+0	2.8445064E+0	16.3000011E+0
307.5475956E-3	-3.1125286E+0	2.8462382E+0	16.3999996E+0
307.7248450E-3	-2.9923759E+0	2.8478748E+0	16.5000000E+0
307.8961380E-3	-2.9446969E+0	2.8494565E+0	16.6000004E+0
308.0668954E-3	-2.8083811E+0	2.8510332E+0	16.7000008E+0
308.2345360E-3	-2.6645145E+0	2.8525811E+0	16.8000011E+0
308.4108669E-3	-2.5376322E+0	2.8542093E+0	16.8999996E+0
308.5814511E-3	-2.4321944E+0	2.8557844E+0	17.0000000E+0
308.7783911E-3	-2.3467410E+0	2.8576029E+0	17.1000004E+0
308.9557477E-3	-2.2518996E+0	2.8592405E+0	17.2000008E+0
309.1383646E-3	-2.1810379E+0	2.8609267E+0	17.3000011E+0
309.3251171E-3	-2.1355380E+0	2.8626511E+0	17.3999996E+0
309.4915533E-3	-2.0572948E+0	2.8641879E+0	17.5000000E+0
309.6632407E-3	-1.9543675E+0	2.8657732E+0	17.6000004E+0
309.8363522E-3	-1.9034207E+0	2.8673717E+0	17.7000008E+0
310.0245784E-3	-1.8256324E+0	2.8691097E+0	17.8000011E+0
310.2140247E-3	-1.7630078E+0	2.8708590E+0	17.8999996E+0
310.4145015E-3	-1.7531230E+0	2.8727101E+0	18.0000000E+0
310.5967888E-3	-1.6593702E+0	2.8743932E+0	18.1000004E+0
310.7732773E-3	-1.6270054E+0	2.8760229E+0	18.2000008E+0
310.9731798E-3	-1.6408205E+0	2.8778687E+0	18.3000011E+0
311.1559201E-3	-1.6211688E+0	2.8795560E+0	18.3999996E+0
311.3214010E-3	-1.5207149E+0	2.8810840E+0	18.5000000E+0
311.4983252E-3	-1.4733751E+0	2.8827177E+0	18.6000004E+0
311.6877235E-3	-1.4494016E+0	2.8844665E+0	18.7000008E+0
311.8934220E-3	-1.4647808E+0	2.8863659E+0	18.8000011E+0
312.0750249E-3	-1.4000174E+0	2.8880427E+0	18.8999996E+0
312.2899617E-3	-1.3405640E+0	2.8900273E+0	19.0000000E+0
312.4615296E-3	-1.3294086E+0	2.8916115E+0	19.1000004E+0
312.6717548E-3	-1.3688612E+0	2.8935527E+0	19.2000008E+0
312.8518097E-3	-1.3734368E+0	2.8952152E+0	19.3000011E+0
313.0425672E-3	-1.3746435E+0	2.8969766E+0	19.3999996E+0
313.2296979E-3	-1.3005888E+0	2.8987045E+0	19.5000000E+0
313.4261809E-3	-1.2822111E+0	2.9005188E+0	19.6000004E+0
313.6290102E-3	-1.2956232E+0	2.9023916E+0	19.7000008E+0
313.8002407E-3	-1.2573753E+0	2.9039727E+0	19.8000011E+0
313.9800861E-3	-1.2653411E+0	2.9056333E+0	19.8999996E+0
314.1669788E-3	-1.2200224E+0	2.9073590E+0	20.0000000E+0
314.3557458E-3	-1.1666255E+0	2.9091020E+0	20.1000004E+0
314.5504881E-3	-1.1930981E+0	2.9109002E+0	20.2000008E+0
314.7417015E-3	-1.2251894E+0	2.9126658E+0	20.3000011E+0
314.9097510E-3	-1.2230197E+0	2.9142175E+0	20.3999996E+0
315.0853216E-3	-1.1247141E+0	2.9158386E+0	20.5000000E+0
315.2755009E-3	-1.0886911E+0	2.9175947E+0	20.6000004E+0
315.4926427E-3	-1.1384487E+0	2.9195997E+0	20.7000008E+0
315.6661983E-3	-1.1132528E+0	2.9212022E+0	20.8000011E+0
315.8581155E-3	-1.1472065E+0	2.9229743E+0	20.8999996E+0
316.0538522E-3	-1.1242753E+0	2.9247816E+0	21.0000000E+0
316.2380433E-3	-1.1177098E+0	2.9264824E+0	21.1000004E+0
316.4278187E-3	-1.0972304E+0	2.9282347E+0	21.2000008E+0
316.6364668E-3	-1.0884041E+0	2.9301613E+0	21.3000011E+0
316.8096420E-3	-1.0908964E+0	2.9317603E+0	21.3999996E+0
316.9820316E-3	-1.0401428E+0	2.9333521E+0	21.5000000E+0
317.1621178E-3	-1.0584282E+0	2.9350149E+0	21.6000004E+0
317.3582148E-3	-1.0240592E+0	2.9368256E+0	21.7000008E+0
317.5775572E-3	-1.0347944E+0	2.9388509E+0	21.8000011E+0
317.7588104E-3	-1.0448159E+0	2.9405246E+0	21.8999996E+0
317.9538115E-3	-1.0637259E+0	2.9423251E+0	22.0000000E+0
318.1480723E-3	-1.0445524E+0	2.9441189E+0	22.1000004E+0
318.3377943E-3	-1.1157679E+0	2.9458707E+0	22.2000008E+0
318.5257993E-3	-1.0882630E+0	2.9476066E+0	22.3000011E+0
318.7271247E-3	-1.0618973E+0	2.9494656E+0	22.3999996E+0
318.8966581E-3	-999.1602021E-3	2.9510310E+0	22.5000000E+0
319.0908534E-3	-1.0175490E+0	2.9528241E+0	22.6000004E+0
319.2728552E-3	-1.0626707E+0	2.9545047E+0	22.7000008E+0
319.4710371E-3	-1.0920870E+0	2.9563346E+0	22.8000011E+0
319.6697117E-3	-1.0747507E+0	2.9581691E+0	22.8999996E+0
319.8660635E-3	-1.0041206E+0	2.9599821E+0	23.0000000E+0
320.0460144E-3	-990.2685607E-3	2.9616437E+0	23.1000004E+0
320.2377948E-3	-1.0276079E+0	2.9634145E+0	23.2000008E+0
320.4400554E-3	-1.0514019E+0	2.9652821E+0	23.3000011E+0
320.6484063E-3	-1.0358153E+0	2.9672060E+0	23.3999996E+0
320.8199480E-3	-1.0235681E+0	2.9687899E+0	23.5000000E+0
320.9962571E-3	-1.0411547E+0	2.9704179E+0	23.6000004E+0
321.2047321E-3	-1.0401696E+0	2.9723429E+0	23.7000008E+0
321.4200304E-3	-1.0778808E+0	2.9743308E+0	23.8000011E+0
321.5789589E-3	-1.1110056E+0	2.9757983E+0	23.8999996E+0
321.7919226E-3	-1.0580934E+0	2.9777648E+0	24.0000000E+0
321.9570214E-3	-1.0355418E+0	2.9792892E+0	24.1000004E+0
322.1695912E-3	-1.0366050E+0	2.9812520E+0	24.2000008E+0
322.3844973E-3	-1.0758891E+0	2.9832364E+0	24.3000011E+0
322.5726521E-3	-1.0242722E+0	2.9849737E+0	24.3999996E+0
322.7553097E-3	-1.0716904E+0	2.9866603E+0	24.5000000E+0
322.9686471E-3	-1.0774366E+0	2.9886302E+0	24.6000004E+0
323.1287354E-3	-1.0674110E+0	2.9901084E+0	24.7000008E+0
323.3319412E-3	-1.0365905E+0	2.9919847E+0	24.8000011E+0
323.5163619E-3	-1.0346588E+0	2.9936876E+0	24.8999996E+0
323.7218101E-3	-1.0731536E+0	2.9955846E+0	25.0000000E+0
323.9264405E-3	-1.1143789E+0	2.9974741E+0	25.1000004E+0
324.1086199E-3	-1.0562196E+0	2.9991562E+0	25.2000008E+0
324.2618916E-3	-1.0863441E+0	3.0005715E+0	25.3000011E+0
324.4714078E-3	-1.0848971E+0	3.0025061E+0	25.3999996E+0
324.6738539E-3	-1.0416593E+0	3.0043754E+0	25.5000000E+0
324.8654487E-3	-1.0179607E+0	3.0061445E+0	25.6000004E+0
325.0385725E-3	-1.0277160E+0	3.0077431E+0	25.7000008E+0
325.2294333E-3	-1.0352630E+0	3.0095054E+0	25.8000011E+0
325.4208170E-3	-1.0347407E+0	3.0112725E+0	25.8999996E+0
325.6220184E-3	-1.0574026E+0	3.0131304E+0	26.0000000E+0
325.8336345E-3	-1.0638605E+0	3.0150843E+0	26.1000004E+0
326.0127488E-3	-1.0293074E+0	3.0167382E+0	26.2000008E+0
326.1831932E-3	-1.0377851E+0	3.0183120E+0	26.3000011E+0
326.3793176E-3	-1.0202891E+0	3.0201230E+0	26.3999996E+0
326.5337457E-3	-1.0297049E+0	3.0215489E+0	26.5000000E+0
326.7443932E-3	-1.0512553E+0	3.0234939E+0	26.6000004E+0
326.9191074E-3	-1.0137278E+0	3.0251072E+0	26.7000008E+0
327.1262567E-3	-1.0552694E+0	3.0270199E+0	26.8000011E+0
327.3135785E-3	-996.9758335E-3	3.0287496E+0	26.8999996E+0
327.5257176E-3	-992.7208222E-3	3.0307084E+0	27.0000000E+0
327.7245682E-3	-1.0405087E+0	3.0325445E+0	27.1000004E+0
327.9042634E-3	-1.0267735E+0	3.0342037E+0	27.2000008E+0
328.0974638E-3	-1.0400404E+0	3.0359877E+0	27.3000011E+0
328.2856436E-3	-1.0162113E+0	3.0377252E+0	27.3999996E+0
328.4636718E-3	-957.1823232E-3	3.0393691E+0	27.5000000E+0
328.6725752E-3	-1.0224092E+0	3.0412980E+0	27.6000004E+0
328.8710386E-3	-1.0282432E+0	3.0431306E+0	27.7000008E+0
329.0724713E-3	-1.0442745E+0	3.0449905E+0	27.8000011E+0
329.2585367E-3	-1.0577196E+0	3.0467086E+0	27.8999996E+0
329.4385547E-3	-1.0331406E+0	3.0483708E+0	28.0000000E+0
329.6348238E-3	-1.0415480E+0	3.0501830E+0	28.1000004E+0
329.8186585E-3	-1.0068371E+0	3.0518805E+0	28.2000008E+0
330.0053266E-3	-1.0185446E+0	3.0536041E+0	28.3000011E+0
330.1870424E-3	-967.4676638E-3	3.0552820E+0	28.3999996E+0
330.3652688E-3	-1.0226244E+0	3.0569277E+0	28.5000000E+0
330.5842698E-3	-974.6858901E-3	3.0589499E+0	28.6000004E+0
330.7638147E-3	-932.7411588E-3	3.0606077E+0	28.7000008E+0
330.9654752E-3	-997.5972373E-3	3.0624698E+0	28.8000011E+0
331.1810841E-3	-1.0561972E+0	3.0644606E+0	28.8999996E+0
331.3415199E-3	-1.0146447E+0	3.0659420E+0	29.0000000E+0
331.5385996E-3	-965.2564151E-3	3.0677618E+0	29.1000004E+0
331.7161858E-3	-946.1493029E-3	3.0694015E+0	29.2000008E+0
331.9102499E-3	-986.0594843E-3	3.0711934E+0	29.3000011E+0
332.0973845E-3	-1.0651275E+0	3.0729214E+0	29.3999996E+0
332.2901777E-3	-974.4201792E-3	3.0747015E+0	29.5000000E+0
332.5060910E-3	-968.6519088E-3	3.0766952E+0	29.6000004E+0
332.6970748E-3	-1.0025784E+0	3.0784587E+0	29.7000008E+0
332.8873278E-3	-980.2099341E-3	3.0802154E+0	29.8000011E+0
333.0668212E-3	-1.0420345E+0	3.0818728E+0	29.8999996E+0
333.2458499E-3	-1.0285648E+0	3.0835259E+0	30.0000000E+0
333.4454926E-3	-1.0646596E+0	3.0853693E+0	30.1000004E+0
333.6227582E-3	-1.0035386E+0	3.0870061E+0	30.2000008E+0
333.8022868E-3	-983.5659510E-3	3.0886638E+0	30.3000011E+0
333.9740402E-3	-1.0464268E+0	3.0902497E+0	30.3999996E+0
334.0776369E-3	-1.0549960E+0	3.0912063E+0	30.5000000E+0
334.0661774E-3	-1.0066649E+0	3.0911004E+0	30.6000004E+0
333.9407431E-3	-1.0710421E+0	3.0899422E+0	30.7000008E+0
333.8036996E-3	-1.0476828E+0	3.0886768E+0	30.8000011E+0
333.6131852E-3	-896.5048199E-3	3.0869177E+0	30.8999996E+0
333.4655123E-3	-921.2131808E-3	3.0855541E+0	31.0000000E+0
333.3463031E-3	-977.2409623E-3	3.0844534E+0	31.1000004E+0
333.1962509E-3	-994.1943878E-3	3.0830679E+0	31.2000008E+0
333.0172859E-3	-1.0179497E+0	3.0814154E+0	31.3000011E+0
332.8558636E-3	-963.7814722E-3	3.0799249E+0	31.3999996E+0
332.6868225E-3	-1.0251907E+0	3.0783640E+0	31.5000000E+0
332.5465366E-3	-984.3166433E-3	3.0770687E+0	31.6000004E+0
332.3726380E-3	-1.0281839E+0	3.0754630E+0	31.7000008E+0
332.2171133E-3	-1.0189232E+0	3.0740269E+0	31.8000011E+0
332.0237827E-3	-982.3928325E-3	3.0722418E+0	31.8999996E+0
331.8547477E-3	-1.0116782E+0	3.0706810E+0	32.0000000E+0
331.6861149E-3	-980.5606027E-3	3.0691239E+0	32.1000023E+0
331.5288791E-3	-1.0267243E+0	3.0676720E+0	32.2000008E+0
331.3768024E-3	-1.0043637E+0	3.0662678E+0	32.2999992E+0
331.2092791E-3	-962.3751867E-3	3.0647210E+0	32.4000015E+0
331.0338291E-3	-968.9696983E-3	3.0631009E+0	32.5000000E+0
330.8507257E-3	-957.4346586E-3	3.0614102E+0	32.6000023E+0
330.6596733E-3	-963.9394101E-3	3.0596461E+0	32.7000008E+0
330.4820932E-3	-930.9506393E-3	3.0580064E+0	32.7999992E+0
330.3029897E-3	-998.7313073E-3	3.0563526E+0	32.9000015E+0
330.1560358E-3	-1.0139687E+0	3.0549957E+0	33.0000000E+0
329.9667582E-3	-960.1505264E-3	3.0532480E+0	33.1000023E+0
329.8147586E-3	-990.6188373E-3	3.0518445E+0	33.2000008E+0
329.6469079E-3	-1.0549113E+0	3.0502946E+0	33.2999992E+0
329.4570711E-3	-990.4989061E-3	3.0485417E+0	33.4000015E+0
329.3052955E-3	-982.0109714E-3	3.0471403E+0	33.5000000E+0
329.1118062E-3	-1.0154470E+0	3.0453537E+0	33.6000023E+0
328.9364658E-3	-987.2992640E-3	3.0437347E+0	33.7000008E+0
328.7601572E-3	-997.8236675E-3	3.0421067E+0	33.7999992E+0
328.5880848E-3	-1.0226072E+0	3.0405179E+0	33.9000015E+0
328.4179409E-3	-1.0759102E+0	3.0389468E+0	34.0000000E+0
328.2401993E-3	-1.0170415E+0	3.0373056E+0	34.1000023E+0
328.0447001E-3	-1.0483257E+0	3.0355005E+0	34.2000008E+0
327.8775248E-3	-992.5931070E-3	3.0339568E+0	34.2999992E+0
327.7240861E-3	-1.0132081E+0	3.0325400E+0	34.4000015E+0
327.5413112E-3	-1.0433387E+0	3.0308524E+0	34.5000000E+0
327.3508699E-3	-980.5326343E-3	3.0290939E+0	34.6000023E+0
327.1700039E-3	-1.0198816E+0	3.0274239E+0	34.7000008E+0
326.9877909E-3	-1.0305464E+0	3.0257414E+0	34.7999992E+0
326.8047389E-3	-992.4440311E-3	3.0240511E+0	34.9000015E+0
326.6379994E-3	-1.0308274E+0	3.0225115E+0	35.0000000E+0
326.4725090E-3	-1.0107887E+0	3.0209835E+0	35.1000023E+0
326.2837989E-3	-1.0177816E+0	3.0192410E+0	35.2000008E+0
326.1163801E-3	-975.5682644E-3	3.0176951E+0	35.2999992E+0
325.9449083E-3	-1.0346286E+0	3.0161118E+0	35.4000015E+0
325.7552290E-3	-1.0266673E+0	3.0143604E+0	35.5000000E+0
325.5855694E-3	-1.0241388E+0	3.0127938E+0	35.6000023E+0
325.4111440E-3	-1.0830710E+0	3.0111832E+0	35.7000008E+0
325.2362064E-3	-1.0092098E+0	3.0095679E+0	35.7999992E+0
325.0493415E-3	-1.0542789E+0	3.0078425E+0	35.9000015E+0
324.8603003E-3	-975.1304353E-3	3.0060970E+0	36.0000000E+0
324.6858849E-3	-1.0167465E+0	3.0044865E+0	36.1000023E+0
324.4918063E-3	-1.0687856E+0	3.0026944E+0	36.2000008E+0
324.3329649E-3	-1.0667416E+0	3.0012277E+0	36.2999992E+0
324.1546899E-3	-1.0464171E+0	2.9995816E+0	36.4000015E+0
323.9949759E-3	-1.0598454E+0	2.9981069E+0	36.5000000E+0
323.7974901E-3	-1.0552573E+0	2.9962834E+0	36.6000023E+0
323.6320824E-3	-1.1133307E+0	2.9947561E+0	36.7000008E+0
323.4429545E-3	-1.0675504E+0	2.9930097E+0	36.7999992E+0
323.2411990E-3	-981.0895795E-3	2.9911468E+0	36.9000015E+0
323.0584072E-3	-1.0560607E+0	2.9894590E+0	37.0000000E+0
322.9118561E-3	-1.0684088E+0	2.9881058E+0	37.1000023E+0
322.7213450E-3	-1.0843363E+0	2.9863467E+0	37.2000008E+0
322.5225313E-3	-1.0447301E+0	2.9845109E+0	37.2999992E+0
322.3831577E-3	-1.0651297E+0	2.9832240E+0	37.4000015E+0
322.1921226E-3	-1.0184874E+0	2.9814600E+0	37.5000000E+0
322.0247429E-3	-1.0499311E+0	2.9799145E+0	37.6000023E+0
321.8177556E-3	-1.0352006E+0	2.9780033E+0	37.7000008E+0
321.6332159E-3	-1.0095773E+0	2.9762993E+0	37.7999992E+0
321.4777387E-3	-1.0973244E+0	2.9748637E+0	37.9000015E+0
321.2674581E-3	-1.0145165E+0	2.9729221E+0	38.0000000E+0
321.1003449E-3	-991.1336442E-3	2.9713790E+0	38.1000023E+0
320.9217201E-3	-1.0245463E+0	2.9697296E+0	38.2000008E+0
320.7610084E-3	-1.0374397E+0	2.9682457E+0	38.2999992E+0
320.5639410E-3	-1.0258621E+0	2.9664260E+0	38.4000015E+0
320.3592481E-3	-1.0165311E+0	2.9645360E+0	38.5000000E+0
320.1835892E-3	-1.0788818E+0	2.9629140E+0	38.6000023E+0
320.0389755E-3	-1.0624042E+0	2.9615787E+0	38.7000008E+0
319.8396869E-3	-1.0676304E+0	2.9597386E+0	38.7999992E+0
319.6424357E-3	-1.0545008E+0	2.9579172E+0	38.9000015E+0
319.4470862E-3	-1.0590660E+0	2.9561134E+0	39.0000000E+0
319.2798942E-3	-1.0606120E+0	2.9545697E+0	39.1000023E+0
319.0977460E-3	-1.0810153E+0	2.9528878E+0	39.2000008E+0
318.9549406E-3	-1.1152488E+0	2.9515692E+0	39.2999992E+0
318.7498952E-3	-1.0041979E+0	2.9496759E+0	39.4000015E+0
318.5610405E-3	-1.0675733E+0	2.9479320E+0	39.5000000E+0
318.3868737E-3	-1.1199668E+0	2.9463239E+0	39.6000023E+0
318.2295217E-3	-1.1415359E+0	2.9448709E+0	39.7000008E+0
318.0204485E-3	-1.0903758E+0	2.9429404E+0	39.7999992E+0
317.8359512E-3	-1.0200717E+0	2.9412369E+0	39.9000015E+0
317.6722664E-3	-1.0833551E+0	2.9397255E+0	40.0000000E+0
317.4792229E-3	-1.1063428E+0	2.9379430E+0	40.1000023E+0
317.2944497E-3	-1.1100541E+0	2.9362368E+0	40.2000008E+0
317.1156233E-3	-1.0755730E+0	2.9345856E+0	40.2999992E+0
316.9470776E-3	-1.1155451E+0	2.9330293E+0	40.4000015E+0
316.7734617E-3	-1.0512654E+0	2.9314262E+0	40.5000000E+0
316.5718704E-3	-1.0804643E+0	2.9295648E+0	40.6000023E+0
316.3738600E-3	-1.1254188E+0	2.9277365E+0	40.7000008E+0
316.1997743E-3	-1.1407411E+0	2.9261290E+0	40.7999992E+0
316.0090677E-3	-1.1456944E+0	2.9243681E+0	40.9000015E+0
315.8199995E-3	-1.1231310E+0	2.9226223E+0	41.0000000E+0
315.6415971E-3	-1.0845672E+0	2.9209750E+0	41.1000023E+0
315.4793424E-3	-1.1765673E+0	2.9194768E+0	41.2000008E+0
315.3042221E-3	-1.1732089E+0	2.9178599E+0	41.2999992E+0
315.1063997E-3	-1.1454327E+0	2.9160332E+0	41.4000015E+0
314.9407157E-3	-1.1552039E+0	2.9145034E+0	41.5000000E+0
314.7273224E-3	-1.1497024E+0	2.9125330E+0	41.6000023E+0
314.5640381E-3	-1.1878657E+0	2.9110253E+0	41.7000008E+0
314.3735835E-3	-1.1358031E+0	2.9092667E+0	41.7999992E+0
314.1835120E-3	-1.2118739E+0	2.9075117E+0	41.9000015E+0
314.0205026E-3	-1.2427597E+0	2.9060065E+0	42.0000000E+0
313.8482112E-3	-1.2744712E+0	2.9044156E+0	42.1000023E+0
313.6286639E-3	-1.2570156E+0	2.9023884E+0	42.2000008E+0
313.4511084E-3	-1.2403537E+0	2.9007489E+0	42.2999992E+0
313.2577107E-3	-1.3115264E+0	2.8989632E+0	42.4000015E+0
313.0570674E-3	-1.2444413E+0	2.8971105E+0	42.5000000E+0
312.8784796E-3	-1.2821449E+0	2.8954615E+0	42.6000023E+0
312.7143405E-3	-1.3295149E+0	2.8939459E+0	42.7000008E+0
312.4923558E-3	-1.2988783E+0	2.8918962E+0	42.7999992E+0
312.3613719E-3	-1.3565245E+0	2.8906867E+0	42.9000015E+0
312.1505663E-3	-1.3734145E+0	2.8887402E+0	43.0000000E+0
311.9615591E-3	-1.4340483E+0	2.8869950E+0	43.1000023E+0
311.7851896E-3	-1.4020061E+0	2.8853665E+0	43.2000008E+0
311.6155943E-3	-1.5249142E+0	2.8838005E+0	43.2999992E+0
311.4186699E-3	-1.5167441E+0	2.8819822E+0	43.4000015E+0
311.2327101E-3	-1.5430465E+0	2.8802651E+0	43.5000000E+0
311.0788547E-3	-1.5721652E+0	2.8788445E+0	43.6000023E+0
310.8566889E-3	-1.5739091E+0	2.8767931E+0	43.7000008E+0
310.6935275E-3	-1.6314419E+0	2.8752865E+0	43.7999992E+0
310.5041427E-3	-1.6651013E+0	2.8735378E+0	43.9000015E+0
310.3272470E-3	-1.6854255E+0	2.8719044E+0	44.0000000E+0
310.1480406E-3	-1.7698596E+0	2.8702497E+0	44.1000023E+0
309.9575895E-3	-1.8205341E+0	2.8684911E+0	44.2000008E+0
309.7790191E-3	-1.8732885E+0	2.8668423E+0	44.2999992E+0
309.5996141E-3	-1.9339933E+0	2.8651857E+0	44.4000015E+0
309.4134560E-3	-2.0046735E+0	2.8634668E+0	44.5000000E+0
309.2519711E-3	-2.0868970E+0	2.8619757E+0	44.6000023E+0
309.0881857E-3	-2.1864616E+0	2.8604634E+0	44.7000008E+0
308.8982668E-3	-2.2508814E+0	2.8587098E+0	44.7999992E+0
308.7189923E-3	-2.2880686E+0	2.8570544E+0	44.9000015E+0
308.5425536E-3	-2.3892715E+0	2.8554252E+0	45.0000000E+0
308.3803179E-3	-2.4824642E+0	2.8539272E+0	45.1000023E+0
308.1768165E-3	-2.6038286E+0	2.8520482E+0	45.2000008E+0
308.0135831E-3	-2.7017794E+0	2.8505409E+0	45.2999992E+0
307.8516870E-3	-2.8663519E+0	2.8490460E+0	45.4000015E+0
307.6900703E-3	-2.9787839E+0	2.8475537E+0	45.5000000E+0
307.4955290E-3	-3.0848978E+0	2.8457574E+0	45.6000023E+0
307.3338560E-3	-3.2346001E+0	2.8442646E+0	45.7000008E+0
307.1547524E-3	-3.3752705E+0	2.8426108E+0	45.7999992E+0
306.9834421E-3	-3.5087217E+0	2.8410290E+0	45.9000015E+0
306.8332905E-3	-3.7303289E+0	2.8396426E+0	46.0000000E+0
306.6708665E-3	-3.8541736E+0	2.8381428E+0	46.1000023E+0
306.4998902E-3	-4.0625453E+0	2.8365641E+0	46.2000008E+0
306.3296502E-3	-4.1492026E+0	2.8349922E+0	46.2999992E+0
306.1535600E-3	-4.3188199E+0	2.8333662E+0	46.4000015E+0
305.9691527E-3	-4.4457211E+0	2.8316635E+0	46.5000000E+0
305.8073270E-3	-4.5950643E+0	2.8301692E+0	46.6000023E+0
305.6144484E-3	-4.6776932E+0	2.8283883E+0	46.7000008E+0
305.4247462E-3	-4.6949691E+0	2.8266366E+0	46.7999992E+0
305.2375937E-3	-4.7810927E+0	2.8249085E+0	46.9000015E+0
305.0508853E-3	-4.7654984E+0	2.8231845E+0	47.0000000E+0
304.8516219E-3	-4.7334578E+0	2.8213446E+0	47.1000023E+0
304.6797227E-3	-4.7130455E+0	2.8197574E+0	47.2000008E+0
304.4462036E-3	-4.5947114E+0	2.8176011E+0	47.2999992E+0
304.2098834E-3	-4.3583285E+0	2.8154191E+0	47.4000015E+0
304.0028899E-3	-4.0613705E+0	2.8135078E+0	47.5000000E+0
303.7630374E-3	-3.7899316E+0	2.8112931E+0	47.6000023E+0
303.5508614E-3	-3.4548403E+0	2.8093339E+0	47.7000008E+0
303.3144094E-3	-3.0677354E+0	2.8071506E+0	47.7999992E+0
303.0640157E-3	-2.7083868E+0	2.8048386E+0	47.9000015E+0
302.8260464E-3	-2.2472384E+0	2.8026412E+0	48.0000000E+0
302.5414602E-3	-1.8412506E+0	2.8000135E+0	48.1000023E+0
302.3049299E-3	-1.3649185E+0	2.7978295E+0	48.2000008E+0
302.0419768E-3	-890.6451954E-3	2.7954014E+0	48.2999992E+0
301.7965059E-3	-551.0375264E-3	2.7931349E+0	48.4000015E+0
301.5563942E-3	-211.1003431E-3	2.7909178E+0	48.5000000E+0
301.3209517E-3	91.3913517E-3	2.7887438E+0	48.6000023E+0
301.0776394E-3	393.0672046E-3	2.7864971E+0	48.7000008E+0
300.8633735E-3	727.6205320E-3	2.7845187E+0	48.7999992E+0
300.6480752E-3	915.4767439E-3	2.7825307E+0	48.9000015E+0
300.4264732E-3	1.0851018E+0	2.7804845E+0	49.0000000E+0
300.2152966E-3	1.2840645E+0	2.7785346E+0	49.1000023E+0
300.0022150E-3	1.3883100E+0	2.7765671E+0	49.2000008E+0
299.8179474E-3	1.4449697E+0	2.7748656E+0	49.2999992E+0
299.5692978E-3	1.5208318E+0	2.7725697E+0	49.4000015E+0
299.4278483E-3	1.5459957E+0	2.7712636E+0	49.5000000E+0
299.2248447E-3	1.5057228E+0	2.7693891E+0	49.6000023E+0
298.9808297E-3	1.5796464E+0	2.7671360E+0	49.7000008E+0
298.8354964E-3	1.5530655E+0	2.7657941E+0	49.7999992E+0
298.6514159E-3	1.4301850E+0	2.7640943E+0	49.9000015E+0
298.4721286E-3	1.3290179E+0	2.7624389E+0	50.0000000E+0
298.2790550E-3	1.2706762E+0	2.7606561E+0	50.1000023E+0
298.0713884E-3	1.2661768E+0	2.7587386E+0	50.2000008E+0
297.9026115E-3	1.1617053E+0	2.7571802E+0	50.2999992E+0
297.8813399E-3	1.1118970E+0	2.7569837E+0	50.4000015E+0
297.6109170E-3	1.0230092E+0	2.7544868E+0	50.5000000E+0
297.3381412E-3	938.3410781E-3	2.7519681E+0	50.6000023E+0
297.1999826E-3	784.4398133E-3	2.7506924E+0	50.7000008E+0
296.9874848E-3	744.5475210E-3	2.7487302E+0	50.7999992E+0
296.8022462E-3	694.7983806E-3	2.7470198E+0	50.9000015E+0
296.6408429E-3	674.0851231E-3	2.7455295E+0	51.0000000E+0
296.4531876E-3	539.0621057E-3	2.7437967E+0	51.1000023E+0
296.2638011E-3	475.2761338E-3	2.7420480E+0	51.2000008E+0
296.0688996E-3	437.0002878E-3	2.7402484E+0	51.2999992E+0
295.8947490E-3	348.2498798E-3	2.7386403E+0	51.4000015E+0
295.7217415E-3	286.8249287E-3	2.7370429E+0	51.5000000E+0
295.5195016E-3	263.4226475E-3	2.7351755E+0	51.6000023E+0
295.3264933E-3	187.0580689E-3	2.7333933E+0	51.7000008E+0
295.1330655E-3	149.6718652E-3	2.7316073E+0	51.7999992E+0
294.9307631E-3	80.5871551E-3	2.7297393E+0	51.9000015E+0
294.7544020E-3	69.1152121E-3	2.7281108E+0	52.0000000E+0
294.5396098E-3	-6.7834142E-3	2.7261275E+0	52.1000023E+0
294.3572851E-3	-80.3131068E-3	2.7244440E+0	52.2000008E+0
294.1680567E-3	-77.2775823E-3	2.7226967E+0	52.2999992E+0
293.9817355E-3	-102.2184397E-3	2.7209763E+0	52.4000015E+0
293.7764981E-3	-170.0640014E-3	2.7190812E+0	52.5000000E+0
293.6260921E-3	-213.3108232E-3	2.7176924E+0	52.6000023E+0
293.4442758E-3	-319.1824831E-3	2.7160136E+0	52.7000008E+0
293.2561244E-3	-343.8409372E-3	2.7142763E+0	52.7999992E+0
293.0025962E-3	-322.8246586E-3	2.7119353E+0	52.9000015E+0
292.8271702E-3	-316.7987914E-3	2.7103155E+0	53.0000000E+0
292.6409948E-3	-375.6436626E-3	2.7085964E+0	53.1000023E+0
292.4474134E-3	-392.7039636E-3	2.7068090E+0	53.2000008E+0
292.2484974E-3	-435.3077546E-3	2.7049723E+0	53.2999992E+0
292.0613935E-3	-422.6647101E-3	2.7032446E+0	53.4000015E+0
291.8615659E-3	-449.1136682E-3	2.7013995E+0	53.5000000E+0
291.6618002E-3	-474.0132537E-3	2.6995549E+0	53.6000023E+0
291.4684920E-3	-503.6167082E-3	2.6977700E+0	53.7000008E+0
291.2633767E-3	-498.1734283E-3	2.6958761E+0	53.7999992E+0
291.0966422E-3	-569.4242929E-3	2.6943365E+0	53.9000015E+0
290.8955408E-3	-556.5719541E-3	2.6924796E+0	54.0000000E+0
290.7022142E-3	-515.2691567E-3	2.6906945E+0	54.1000023E+0
290.5139198E-3	-594.6067924E-3	2.6889559E+0	54.2000008E+0
290.2909630E-3	-569.4324173E-3	2.6868972E+0	54.2999992E+0
290.1060495E-3	-599.1536571E-3	2.6851897E+0	54.4000015E+0
289.9273220E-3	-676.7565040E-3	2.6835394E+0	54.5000000E+0
289.7132053E-3	-640.4917788E-3	2.6815624E+0	54.6000023E+0
289.5448004E-3	-661.8607223E-3	2.6800074E+0	54.7000008E+0
289.3297792E-3	-676.6541627E-3	2.6780220E+0	54.7999992E+0
289.1525522E-3	-726.5666108E-3	2.6763855E+0	54.9000015E+0
288.9528340E-3	-679.8929462E-3	2.6745414E+0	55.0000000E+0
288.7592856E-3	-706.4994037E-3	2.6727543E+0	55.1000023E+0
288.5538949E-3	-740.0328738E-3	2.6708578E+0	55.2000008E+0
288.3616196E-3	-773.6714141E-3	2.6690824E+0	55.2999992E+0
288.1391270E-3	-739.3155250E-3	2.6670280E+0	55.4000015E+0
287.9426362E-3	-754.0245338E-3	2.6652136E+0	55.5000000E+0
287.7579966E-3	-741.6210730E-3	2.6635087E+0	55.6000023E+0
287.5581749E-3	-739.4181862E-3	2.6616637E+0	55.7000008E+0
287.3819116E-3	-733.9186185E-3	2.6600361E+0	55.7999992E+0
287.1517985E-3	-734.0647593E-3	2.6579113E+0	55.9000015E+0
286.9625913E-3	-747.9015454E-3	2.6561643E+0	56.0000000E+0
286.7882134E-3	-714.1344389E-3	2.6545541E+0	56.1000023E+0
286.5826635E-3	-804.4826201E-3	2.6526562E+0	56.2000008E+0
286.3803035E-3	-846.6220167E-3	2.6507877E+0	56.2999992E+0
286.1662035E-3	-788.0187360E-3	2.6488107E+0	56.4000015E+0
285.9704194E-3	-781.5121378E-3	2.6470029E+0	56.5000000E+0
285.7771843E-3	-853.8549907E-3	2.6452187E+0	56.6000023E+0
285.5897480E-3	-789.9442129E-3	2.6434880E+0	56.7000008E+0
285.3954247E-3	-814.2559290E-3	2.6416937E+0	56.7999992E+0
285.1894072E-3	-814.0544342E-3	2.6397914E+0	56.9000015E+0
284.9909091E-3	-893.6641720E-3	2.6379585E+0	57.0000000E+0
284.7838928E-3	-882.8574941E-3	2.6360470E+0	57.1000023E+0
284.5790591E-3	-813.2657198E-3	2.6341557E+0	57.2000008E+0
284.3779879E-3	-820.3449188E-3	2.6322991E+0	57.2999992E+0
284.1915996E-3	-814.4671524E-3	2.6305780E+0	57.4000015E+0
283.9838632E-3	-859.1310065E-3	2.6286599E+0	57.5000000E+0
283.7964470E-3	-855.4495967E-3	2.6269293E+0	57.6000023E+0
283.6008913E-3	-898.4227244E-3	2.6251237E+0	57.7000008E+0
283.4044680E-3	-926.3349263E-3	2.6233100E+0	57.7999992E+0
283.2060046E-3	-877.9916433E-3	2.6214774E+0	57.9000015E+0
282.9882544E-3	-879.1482293E-3	2.6194668E+0	58.0000000E+0
282.7859028E-3	-890.4260281E-3	2.6175984E+0	58.1000023E+0
282.5972051E-3	-877.1265598E-3	2.6158560E+0	58.2000008E+0
282.4054247E-3	-904.1755868E-3	2.6140852E+0	58.2999992E+0
282.2017915E-3	-929.2821247E-3	2.6122049E+0	58.4000015E+0
282.0178462E-3	-925.3832705E-3	2.6105064E+0	58.5000000E+0
281.8194850E-3	-903.9274091E-3	2.6086748E+0	58.6000023E+0
281.6276589E-3	-892.8511258E-3	2.6069036E+0	58.7000008E+0
281.4223816E-3	-900.8658040E-3	2.6050081E+0	58.7999992E+0
281.2273181E-3	-914.4590394E-3	2.6032070E+0	58.9000015E+0
281.0072674E-3	-873.8281820E-3	2.6011751E+0	59.0000000E+0
280.8249008E-3	-874.9320035E-3	2.5994912E+0	59.1000023E+0
280.6158437E-3	-914.8220365E-3	2.5975609E+0	59.2000008E+0
280.3982600E-3	-853.9163955E-3	2.5955518E+0	59.2999992E+0
280.2094846E-3	-911.2983324E-3	2.5938087E+0	59.4000015E+0
280.0179898E-3	-913.6357642E-3	2.5920405E+0	59.5000000E+0
279.8322361E-3	-945.6765983E-3	2.5903254E+0	59.6000023E+0
279.6132496E-3	-959.8073528E-3	2.5883033E+0	59.7000008E+0
279.4043685E-3	-905.8920481E-3	2.5863746E+0	59.7999992E+0
279.1990527E-3	-896.8533839E-3	2.5844788E+0	59.9000015E+0
278.9847058E-3	-936.6730315E-3	2.5824996E+0	60.0000000E+0
278.8391139E-3	-934.1903823E-3	2.5811553E+0	60.1000023E+0
