Magnetic Field (T)	Diode Voltage (V)	Hall probe (V)	Acquisition Time 		
Tesla	Volts	Volts	Seconds		
NaN	NaN	NaN	0.0000000E+0
NaN	NaN	NaN	100.0000015E-3
277.7180804E-3	-1.0261131E+0	2.5708041E+0	200.0000030E-3
277.7344119E-3	-993.1704048E-3	2.5709549E+0	300.0000119E-3
277.8013928E-3	-1.0339213E+0	2.5715733E+0	400.0000060E-3
277.9278413E-3	-999.8238010E-3	2.5727409E+0	500.0000000E-3
278.0588654E-3	-1.0257216E+0	2.5739507E+0	600.0000238E-3
278.2324271E-3	-1.0164236E+0	2.5755533E+0	699.9999881E-3
278.4082855E-3	-1.0233686E+0	2.5771772E+0	800.0000119E-3
278.5598426E-3	-981.7423254E-3	2.5785766E+0	900.0000358E-3
278.7496398E-3	-1.0207662E+0	2.5803291E+0	1.0000000E+0
278.9163871E-3	-1.0290656E+0	2.5818688E+0	1.1000000E+0
279.0957102E-3	-1.0539867E+0	2.5835246E+0	1.2000000E+0
279.2487724E-3	-1.0134815E+0	2.5849379E+0	1.3000001E+0
279.4213821E-3	-1.0004190E+0	2.5865317E+0	1.4000000E+0
279.6009359E-3	-1.0235222E+0	2.5881896E+0	1.5000000E+0
279.7911945E-3	-996.2383517E-3	2.5899464E+0	1.6000000E+0
279.9387076E-3	-998.3663964E-3	2.5913085E+0	1.7000000E+0
280.1081940E-3	-995.8308330E-3	2.5928734E+0	1.8000001E+0
280.2728705E-3	-991.1690665E-3	2.5943940E+0	1.9000000E+0
280.4573147E-3	-957.3144075E-3	2.5960971E+0	2.0000000E+0
280.6396740E-3	-947.0537290E-3	2.5977809E+0	2.1000001E+0
280.8519304E-3	-970.8649526E-3	2.5997408E+0	2.2000000E+0
281.0182258E-3	-950.1126981E-3	2.6012763E+0	2.3000000E+0
281.1944758E-3	-996.5066624E-3	2.6029037E+0	2.4000001E+0
281.3707721E-3	-842.1270758E-3	2.6045316E+0	2.5000000E+0
281.5522325E-3	-926.5694706E-3	2.6062071E+0	2.6000001E+0
281.7234390E-3	-908.2941860E-3	2.6077880E+0	2.7000000E+0
281.9075631E-3	-911.7052012E-3	2.6094881E+0	2.8000000E+0
282.0843130E-3	-955.9673397E-3	2.6111202E+0	2.9000001E+0
282.2705622E-3	-931.4799307E-3	2.6128399E+0	3.0000000E+0
282.4407290E-3	-933.7300577E-3	2.6144112E+0	3.1000001E+0
282.6218314E-3	-898.0133590E-3	2.6160834E+0	3.2000000E+0
282.8109782E-3	-900.5715572E-3	2.6178299E+0	3.3000000E+0
282.9859612E-3	-891.3707666E-3	2.6194456E+0	3.4000001E+0
283.1694635E-3	-856.7957051E-3	2.6211400E+0	3.5000000E+0
283.3765938E-3	-842.1995452E-3	2.6230526E+0	3.6000001E+0
283.5616832E-3	-898.0373453E-3	2.6247616E+0	3.7000000E+0
283.7607801E-3	-834.0485219E-3	2.6266000E+0	3.8000000E+0
283.9178120E-3	-904.9927184E-3	2.6280500E+0	3.9000001E+0
284.1041199E-3	-828.5849955E-3	2.6297703E+0	4.0000000E+0
284.3214753E-3	-857.7326316E-3	2.6317772E+0	4.0999999E+0
284.4872649E-3	-868.2249938E-3	2.6333081E+0	4.2000003E+0
284.6900987E-3	-883.9172377E-3	2.6351810E+0	4.3000002E+0
284.8343797E-3	-836.8965014E-3	2.6365132E+0	4.4000001E+0
285.0311714E-3	-766.1924391E-3	2.6383303E+0	4.5000000E+0
285.1974668E-3	-805.4604699E-3	2.6398658E+0	4.5999999E+0
285.4130199E-3	-841.5852238E-3	2.6418561E+0	4.7000003E+0
285.6027349E-3	-781.1321904E-3	2.6436079E+0	4.8000002E+0
285.7751542E-3	-833.8717355E-3	2.6451999E+0	4.9000001E+0
285.9607905E-3	-799.1506674E-3	2.6469140E+0	5.0000000E+0
286.1345986E-3	-777.4092767E-3	2.6485189E+0	5.0999999E+0
286.3087452E-3	-829.7171466E-3	2.6501269E+0	5.2000003E+0
286.4701458E-3	-779.0341518E-3	2.6516172E+0	5.3000002E+0
286.6568731E-3	-774.6578267E-3	2.6533414E+0	5.4000001E+0
286.8345175E-3	-763.3648315E-3	2.6549817E+0	5.5000000E+0
287.0245358E-3	-747.3077439E-3	2.6567362E+0	5.5999999E+0
287.2213786E-3	-800.5263743E-3	2.6585538E+0	5.7000003E+0
287.3733218E-3	-724.6701598E-3	2.6599568E+0	5.8000002E+0
287.5646335E-3	-804.3064837E-3	2.6617233E+0	5.9000001E+0
287.7643293E-3	-739.3423896E-3	2.6635672E+0	6.0000000E+0
287.9411474E-3	-749.7457786E-3	2.6651999E+0	6.0999999E+0
288.1371528E-3	-803.9882145E-3	2.6670097E+0	6.2000003E+0
288.3137195E-3	-790.9301871E-3	2.6686401E+0	6.3000002E+0
288.4893331E-3	-798.8247742E-3	2.6702616E+0	6.4000001E+0
288.6858692E-3	-762.9189658E-3	2.6720764E+0	6.5000000E+0
288.8963078E-3	-780.3109064E-3	2.6740195E+0	6.5999999E+0
289.0452433E-3	-838.2242703E-3	2.6753947E+0	6.7000003E+0
289.2418414E-3	-831.2592614E-3	2.6772100E+0	6.8000002E+0
289.3989861E-3	-818.3454043E-3	2.6786610E+0	6.9000001E+0
289.5965468E-3	-876.9918086E-3	2.6804852E+0	7.0000000E+0
289.7883813E-3	-881.4640013E-3	2.6822565E+0	7.0999999E+0
289.9910871E-3	-966.8977143E-3	2.6841282E+0	7.2000003E+0
290.1780229E-3	-938.2725585E-3	2.6858543E+0	7.3000002E+0
290.3479780E-3	-969.7946138E-3	2.6874236E+0	7.4000001E+0
290.5380265E-3	-980.3907801E-3	2.6891785E+0	7.5000000E+0
290.7242461E-3	-961.4296280E-3	2.6908979E+0	7.5999999E+0
290.9213369E-3	-1.0044206E+0	2.6927178E+0	7.7000003E+0
291.1400374E-3	-1.1169132E+0	2.6947372E+0	7.8000002E+0
291.2920437E-3	-1.0800029E+0	2.6961408E+0	7.9000001E+0
291.4956814E-3	-1.0897019E+0	2.6980211E+0	8.0000000E+0
291.6876002E-3	-1.1064747E+0	2.6997932E+0	8.1000004E+0
291.8874340E-3	-1.1468613E+0	2.7016384E+0	8.1999998E+0
292.0747407E-3	-1.1917446E+0	2.7033679E+0	8.3000002E+0
292.2601011E-3	-1.1399975E+0	2.7050794E+0	8.4000006E+0
292.4702246E-3	-1.2838789E+0	2.7070196E+0	8.5000000E+0
292.6753192E-3	-1.3246846E+0	2.7089134E+0	8.6000004E+0
292.8745776E-3	-1.3507575E+0	2.7107533E+0	8.6999998E+0
293.0325564E-3	-1.3098042E+0	2.7122120E+0	8.8000002E+0
293.2225357E-3	-1.3332707E+0	2.7139662E+0	8.9000006E+0
293.4074972E-3	-1.4062213E+0	2.7156740E+0	9.0000000E+0
293.6095857E-3	-1.4633327E+0	2.7175400E+0	9.1000004E+0
293.7856502E-3	-1.4351701E+0	2.7191657E+0	9.1999998E+0
294.0002831E-3	-1.4785139E+0	2.7211476E+0	9.3000002E+0
294.1950841E-3	-1.4871205E+0	2.7229463E+0	9.4000006E+0
294.3782400E-3	-1.5043771E+0	2.7246375E+0	9.5000000E+0
294.5540732E-3	-1.5053501E+0	2.7262611E+0	9.6000004E+0
294.7278573E-3	-1.5845478E+0	2.7278657E+0	9.6999998E+0
294.9219644E-3	-1.5288562E+0	2.7296580E+0	9.8000002E+0
295.1023779E-3	-1.5177893E+0	2.7313239E+0	9.9000006E+0
295.2840484E-3	-1.4917456E+0	2.7330014E+0	10.0000000E+0
295.4853844E-3	-1.5479877E+0	2.7348604E+0	10.1000004E+0
295.6873456E-3	-1.6037492E+0	2.7367253E+0	10.1999998E+0
295.8725406E-3	-1.6289946E+0	2.7384353E+0	10.3000002E+0
296.0739565E-3	-1.5721728E+0	2.7402951E+0	10.4000006E+0
296.2343431E-3	-1.5554989E+0	2.7417760E+0	10.5000000E+0
296.4111740E-3	-1.5672051E+0	2.7434088E+0	10.6000004E+0
296.5943858E-3	-1.5624540E+0	2.7451005E+0	10.6999998E+0
296.7944229E-3	-1.4799176E+0	2.7469476E+0	10.8000002E+0
296.9900809E-3	-1.5240826E+0	2.7487542E+0	10.9000006E+0
297.1835466E-3	-1.5426689E+0	2.7505406E+0	11.0000000E+0
297.3488091E-3	-1.4459665E+0	2.7520666E+0	11.1000004E+0
297.5464776E-3	-1.4680690E+0	2.7538918E+0	11.1999998E+0
297.7512739E-3	-1.4377033E+0	2.7557828E+0	11.3000002E+0
297.9079058E-3	-1.4324648E+0	2.7572290E+0	11.4000006E+0
298.0875635E-3	-1.4917422E+0	2.7588879E+0	11.5000000E+0
298.2939776E-3	-1.4702196E+0	2.7607939E+0	11.6000004E+0
298.4393673E-3	-1.4565385E+0	2.7621364E+0	11.6999998E+0
298.6623615E-3	-1.4234567E+0	2.7641954E+0	11.8000002E+0
298.8256598E-3	-1.4688785E+0	2.7657032E+0	11.9000006E+0
299.0363414E-3	-1.4710528E+0	2.7676486E+0	12.0000000E+0
299.2024318E-3	-1.4395769E+0	2.7691822E+0	12.1000004E+0
299.3963595E-3	-1.3228243E+0	2.7709728E+0	12.1999998E+0
299.6053356E-3	-1.3503542E+0	2.7729025E+0	12.3000002E+0
299.8095006E-3	-1.3661272E+0	2.7747876E+0	12.4000006E+0
299.9866217E-3	-1.4199360E+0	2.7764231E+0	12.5000000E+0
300.1703176E-3	-1.3159159E+0	2.7781193E+0	12.6000004E+0
300.3392594E-3	-1.2753257E+0	2.7796792E+0	12.6999998E+0
300.5474651E-3	-1.3100505E+0	2.7816017E+0	12.8000002E+0
300.7304428E-3	-1.3465276E+0	2.7832913E+0	12.9000006E+0
300.9017850E-3	-1.3364747E+0	2.7848734E+0	13.0000000E+0
301.0865689E-3	-1.3068788E+0	2.7865796E+0	13.1000004E+0
301.2752230E-3	-1.2482175E+0	2.7883215E+0	13.1999998E+0
301.4898761E-3	-1.3463304E+0	2.7903036E+0	13.3000002E+0
301.6862937E-3	-1.2356601E+0	2.7921172E+0	13.4000006E+0
301.8432318E-3	-1.2776791E+0	2.7935663E+0	13.5000000E+0
302.0418684E-3	-1.3137309E+0	2.7954004E+0	13.6000004E+0
302.2347571E-3	-1.3220413E+0	2.7971815E+0	13.6999998E+0
302.3999136E-3	-1.2079362E+0	2.7987065E+0	13.8000002E+0
302.5859676E-3	-1.2932578E+0	2.8004244E+0	13.9000006E+0
302.7990838E-3	-1.2621493E+0	2.8023923E+0	14.0000000E+0
302.9961780E-3	-1.2799006E+0	2.8042122E+0	14.1000004E+0
303.1679934E-3	-1.2446930E+0	2.8057986E+0	14.1999998E+0
303.3658290E-3	-1.2766125E+0	2.8076254E+0	14.3000002E+0
303.5525586E-3	-1.2489277E+0	2.8093496E+0	14.4000006E+0
303.7335442E-3	-1.1941865E+0	2.8110207E+0	14.5000000E+0
303.9361885E-3	-1.2405018E+0	2.8128919E+0	14.6000004E+0
304.1321604E-3	-1.2705504E+0	2.8147014E+0	14.6999998E+0
304.3356472E-3	-1.2530575E+0	2.8165803E+0	14.8000002E+0
304.5226466E-3	-1.2067357E+0	2.8183070E+0	14.9000006E+0
304.6958285E-3	-1.2135144E+0	2.8199061E+0	15.0000000E+0
304.9052733E-3	-1.1992260E+0	2.8218400E+0	15.1000004E+0
305.1043110E-3	-1.2189876E+0	2.8236778E+0	15.1999998E+0
305.2671925E-3	-1.2014536E+0	2.8251818E+0	15.3000002E+0
305.4891002E-3	-1.2027229E+0	2.8272308E+0	15.4000006E+0
305.6729885E-3	-1.1897613E+0	2.8289288E+0	15.5000000E+0
305.8603986E-3	-1.2056267E+0	2.8306593E+0	15.6000004E+0
306.0449126E-3	-1.2428828E+0	2.8323630E+0	15.6999998E+0
306.2311796E-3	-1.1895128E+0	2.8340829E+0	15.8000002E+0
306.4712774E-3	-1.2294611E+0	2.8362999E+0	15.9000006E+0
306.6201508E-3	-1.1672886E+0	2.8376745E+0	16.0000000E+0
306.8137573E-3	-1.2114505E+0	2.8394622E+0	16.1000004E+0
306.9875437E-3	-1.1672196E+0	2.8410669E+0	16.2000008E+0
307.1824188E-3	-1.2239020E+0	2.8428663E+0	16.3000011E+0
307.3622576E-3	-1.2491075E+0	2.8445268E+0	16.3999996E+0
307.5426767E-3	-1.1727989E+0	2.8461928E+0	16.5000000E+0
307.7311672E-3	-1.1286066E+0	2.8479332E+0	16.6000004E+0
307.9158119E-3	-1.1335676E+0	2.8496382E+0	16.7000008E+0
308.1196462E-3	-1.1546538E+0	2.8515203E+0	16.8000011E+0
308.3208336E-3	-1.2159536E+0	2.8533780E+0	16.8999996E+0
308.5076057E-3	-1.1240915E+0	2.8551025E+0	17.0000000E+0
308.6893069E-3	-1.2006223E+0	2.8567803E+0	17.1000004E+0
308.9035890E-3	-1.1727216E+0	2.8587589E+0	17.2000008E+0
309.0829121E-3	-1.1662826E+0	2.8604147E+0	17.3000011E+0
309.2562864E-3	-1.1426631E+0	2.8620156E+0	17.3999996E+0
309.4593031E-3	-1.1578459E+0	2.8638901E+0	17.5000000E+0
309.6270459E-3	-1.1399819E+0	2.8654390E+0	17.6000004E+0
309.8292825E-3	-1.1098230E+0	2.8673064E+0	17.7000008E+0
310.0253270E-3	-1.1644965E+0	2.8691166E+0	17.8000011E+0
310.2577087E-3	-1.1971889E+0	2.8712623E+0	17.8999996E+0
310.4076408E-3	-1.1688245E+0	2.8726467E+0	18.0000000E+0
310.6115220E-3	-1.2086849E+0	2.8745293E+0	18.1000004E+0
310.8042593E-3	-1.1646851E+0	2.8763090E+0	18.2000008E+0
310.9869800E-3	-1.1786442E+0	2.8779961E+0	18.3000011E+0
311.1685969E-3	-1.1549004E+0	2.8796731E+0	18.3999996E+0
311.3568773E-3	-1.1717583E+0	2.8814116E+0	18.5000000E+0
311.5598815E-3	-1.1400023E+0	2.8832861E+0	18.6000004E+0
311.7463077E-3	-1.1313412E+0	2.8850075E+0	18.7000008E+0
311.9530017E-3	-1.1667320E+0	2.8869160E+0	18.8000011E+0
312.1555176E-3	-1.1137090E+0	2.8887859E+0	18.8999996E+0
312.3197639E-3	-1.1506861E+0	2.8903025E+0	19.0000000E+0
312.5217546E-3	-1.1807881E+0	2.8921676E+0	19.1000004E+0
312.7010732E-3	-1.0971626E+0	2.8938234E+0	19.2000008E+0
312.8899095E-3	-1.1040741E+0	2.8955670E+0	19.3000011E+0
313.0830060E-3	-1.1408910E+0	2.8973500E+0	19.3999996E+0
313.2745439E-3	-1.1303829E+0	2.8991186E+0	19.5000000E+0
313.4546172E-3	-1.1498485E+0	2.9007813E+0	19.6000004E+0
313.6559773E-3	-1.0955098E+0	2.9026406E+0	19.7000008E+0
313.8450012E-3	-1.1487349E+0	2.9043860E+0	19.8000011E+0
314.0380167E-3	-1.1378482E+0	2.9061682E+0	19.8999996E+0
314.2456722E-3	-1.1570345E+0	2.9080856E+0	20.0000000E+0
314.4479305E-3	-1.1766050E+0	2.9099532E+0	20.1000004E+0
314.6273971E-3	-1.1650437E+0	2.9116103E+0	20.2000008E+0
314.8224383E-3	-1.1448913E+0	2.9134112E+0	20.3000011E+0
315.0000312E-3	-1.1247006E+0	2.9150511E+0	20.3999996E+0
315.1775923E-3	-1.1255229E+0	2.9166906E+0	20.5000000E+0
315.3546188E-3	-1.1163962E+0	2.9183252E+0	20.6000004E+0
315.5769125E-3	-1.1323494E+0	2.9203778E+0	20.7000008E+0
315.7501731E-3	-1.1050520E+0	2.9219776E+0	20.8000011E+0
315.9742930E-3	-1.1856974E+0	2.9240470E+0	20.8999996E+0
316.1357667E-3	-1.1840440E+0	2.9255380E+0	21.0000000E+0
316.3247633E-3	-1.1374627E+0	2.9272831E+0	21.1000004E+0
316.5431570E-3	-1.1678628E+0	2.9292997E+0	21.2000008E+0
316.7309112E-3	-1.1629262E+0	2.9310333E+0	21.3000011E+0
316.8969602E-3	-1.1237153E+0	2.9325666E+0	21.3999996E+0
317.0994482E-3	-1.1173123E+0	2.9344363E+0	21.5000000E+0
317.3000954E-3	-1.1043540E+0	2.9362890E+0	21.6000004E+0
317.4737677E-3	-1.1622115E+0	2.9378926E+0	21.7000008E+0
317.6571248E-3	-1.1252668E+0	2.9395856E+0	21.8000011E+0
317.8550357E-3	-1.1288583E+0	2.9414131E+0	21.8999996E+0
318.0566639E-3	-1.1136846E+0	2.9432748E+0	22.0000000E+0
318.2834592E-3	-1.1633210E+0	2.9453690E+0	22.1000004E+0
318.4456859E-3	-1.1782591E+0	2.9468669E+0	22.2000008E+0
318.6240744E-3	-1.1300962E+0	2.9485141E+0	22.3000011E+0
318.8188424E-3	-1.0902309E+0	2.9503125E+0	22.3999996E+0
319.0191566E-3	-1.0808171E+0	2.9521621E+0	22.5000000E+0
319.2128073E-3	-1.1121533E+0	2.9539502E+0	22.6000004E+0
319.3882589E-3	-1.1397005E+0	2.9555703E+0	22.7000008E+0
319.5906530E-3	-1.1605320E+0	2.9574391E+0	22.8000011E+0
319.7924008E-3	-1.1741248E+0	2.9593019E+0	22.8999996E+0
319.9805521E-3	-1.1382673E+0	2.9610393E+0	23.0000000E+0
320.1670845E-3	-1.0728281E+0	2.9627616E+0	23.1000004E+0
320.3325246E-3	-1.1100208E+0	2.9642892E+0	23.2000008E+0
320.5716135E-3	-1.1605158E+0	2.9664969E+0	23.3000011E+0
320.7451942E-3	-1.1318621E+0	2.9680997E+0	23.3999996E+0
320.9534815E-3	-1.1384250E+0	2.9700229E+0	23.5000000E+0
321.1212243E-3	-1.1839707E+0	2.9715718E+0	23.6000004E+0
321.3292870E-3	-1.1961250E+0	2.9734930E+0	23.7000008E+0
321.5008019E-3	-1.1128042E+0	2.9750767E+0	23.8000011E+0
321.6872181E-3	-1.1375563E+0	2.9767980E+0	23.8999996E+0
321.8813838E-3	-1.1317373E+0	2.9785908E+0	24.0000000E+0
322.0708061E-3	-1.0981359E+0	2.9803399E+0	24.1000004E+0
322.2716980E-3	-1.1442105E+0	2.9821948E+0	24.2000008E+0
322.4776105E-3	-1.1392991E+0	2.9840961E+0	24.3000011E+0
322.6490918E-3	-1.1448920E+0	2.9856795E+0	24.3999996E+0
322.8513691E-3	-1.1695368E+0	2.9875473E+0	24.5000000E+0
323.0348022E-3	-1.1193665E+0	2.9892410E+0	24.6000004E+0
323.2073941E-3	-1.0805874E+0	2.9908347E+0	24.7000008E+0
323.4157498E-3	-1.0787483E+0	2.9927585E+0	24.8000011E+0
323.6220927E-3	-1.1565986E+0	2.9946638E+0	24.8999996E+0
323.7913249E-3	-1.1085148E+0	2.9962265E+0	25.0000000E+0
323.9955390E-3	-1.1608554E+0	2.9981121E+0	25.1000004E+0
324.1984728E-3	-1.1458639E+0	2.9999859E+0	25.2000008E+0
324.3763819E-3	-1.1390769E+0	3.0016286E+0	25.3000011E+0
324.5695644E-3	-1.1069013E+0	3.0034124E+0	25.3999996E+0
324.7326588E-3	-1.0931355E+0	3.0049184E+0	25.5000000E+0
324.9355646E-3	-1.1457191E+0	3.0067919E+0	25.6000004E+0
325.1188865E-3	-1.1168525E+0	3.0084846E+0	25.7000008E+0
325.3211157E-3	-1.1226562E+0	3.0103519E+0	25.8000011E+0
325.5143000E-3	-1.1428142E+0	3.0121357E+0	25.8999996E+0
325.7126612E-3	-1.1229942E+0	3.0139673E+0	26.0000000E+0
325.9203775E-3	-1.1179577E+0	3.0158853E+0	26.1000004E+0
326.0723838E-3	-1.1498248E+0	3.0172889E+0	26.2000008E+0
326.3066711E-3	-1.1133907E+0	3.0194522E+0	26.3000011E+0
326.4810641E-3	-1.1502115E+0	3.0210625E+0	26.3999996E+0
326.6784734E-3	-1.1299389E+0	3.0228853E+0	26.5000000E+0
326.8633779E-3	-1.1261939E+0	3.0245926E+0	26.6000004E+0
327.0717752E-3	-1.1978213E+0	3.0265169E+0	26.7000008E+0
327.2489810E-3	-1.1374666E+0	3.0281531E+0	26.8000011E+0
327.4521577E-3	-1.2173663E+0	3.0300292E+0	26.8999996E+0
327.6272194E-3	-1.1517265E+0	3.0316456E+0	27.0000000E+0
327.8103648E-3	-1.1494974E+0	3.0333367E+0	27.1000004E+0
328.0062322E-3	-1.1046383E+0	3.0351453E+0	27.2000008E+0
328.2302934E-3	-1.1489246E+0	3.0372142E+0	27.3000011E+0
328.3941844E-3	-1.1211279E+0	3.0387275E+0	27.3999996E+0
328.5426768E-3	-1.0444002E+0	3.0400986E+0	27.5000000E+0
328.7885588E-3	-1.1192063E+0	3.0423690E+0	27.6000004E+0
328.9763063E-3	-1.1050611E+0	3.0441026E+0	27.7000008E+0
329.1370331E-3	-1.1323913E+0	3.0455866E+0	27.8000011E+0
329.3380384E-3	-1.1725568E+0	3.0474426E+0	27.8999996E+0
329.5318209E-3	-1.1732480E+0	3.0492320E+0	28.0000000E+0
329.7062781E-3	-1.1120625E+0	3.0508428E+0	28.1000004E+0
329.9259406E-3	-1.1398399E+0	3.0528711E+0	28.2000008E+0
330.1227415E-3	-1.1612915E+0	3.0546883E+0	28.3000011E+0
330.3041327E-3	-1.1274102E+0	3.0563632E+0	28.3999996E+0
330.4727537E-3	-1.1189083E+0	3.0579202E+0	28.5000000E+0
330.6665307E-3	-1.1894892E+0	3.0597094E+0	28.6000004E+0
330.8717219E-3	-1.1265667E+0	3.0616041E+0	28.7000008E+0
331.0524120E-3	-1.1629725E+0	3.0632725E+0	28.8000011E+0
331.2542541E-3	-1.1231508E+0	3.0651362E+0	28.8999996E+0
331.4305002E-3	-1.0672226E+0	3.0667636E+0	29.0000000E+0
331.6216526E-3	-1.1409254E+0	3.0685286E+0	29.1000004E+0
331.8421854E-3	-1.2231812E+0	3.0705650E+0	29.2000008E+0
331.9860947E-3	-1.0837187E+0	3.0718938E+0	29.3000011E+0
332.2086705E-3	-1.1392652E+0	3.0739489E+0	29.3999996E+0
332.3731318E-3	-1.1199726E+0	3.0754675E+0	29.5000000E+0
332.5907071E-3	-1.1083088E+0	3.0774765E+0	29.6000004E+0
332.7590388E-3	-1.1345210E+0	3.0790308E+0	29.7000008E+0
332.9196262E-3	-1.0989122E+0	3.0805136E+0	29.8000011E+0
333.1321394E-3	-1.1033168E+0	3.0824759E+0	29.8999996E+0
333.3275912E-3	-1.0873736E+0	3.0842806E+0	30.0000000E+0
333.5060522E-3	-1.1276732E+0	3.0859285E+0	30.1000004E+0
333.7022984E-3	-1.1051014E+0	3.0877405E+0	30.2000008E+0
333.8997803E-3	-1.1989852E+0	3.0895640E+0	30.3000011E+0
334.0444555E-3	-1.0916365E+0	3.0908999E+0	30.3999996E+0
334.0839859E-3	-1.1281334E+0	3.0912649E+0	30.5000000E+0
333.9578830E-3	-1.1558108E+0	3.0901005E+0	30.6000004E+0
333.8278757E-3	-1.1390586E+0	3.0889001E+0	30.7000008E+0
333.7006571E-3	-1.0996632E+0	3.0877254E+0	30.8000011E+0
333.5586685E-3	-1.1098581E+0	3.0864143E+0	30.8999996E+0
333.4031672E-3	-1.1578462E+0	3.0849785E+0	31.0000000E+0
333.2618356E-3	-1.1154112E+0	3.0836735E+0	31.1000004E+0
333.0850521E-3	-1.0450538E+0	3.0820411E+0	31.2000008E+0
332.9558068E-3	-1.1016454E+0	3.0808477E+0	31.3000011E+0
332.8010871E-3	-1.1187918E+0	3.0794191E+0	31.3999996E+0
332.6266751E-3	-1.1164310E+0	3.0778086E+0	31.5000000E+0
332.4417617E-3	-1.1415210E+0	3.0761012E+0	31.6000004E+0
332.3167006E-3	-1.1590999E+0	3.0749465E+0	31.7000008E+0
332.1250934E-3	-1.1566008E+0	3.0731772E+0	31.8000011E+0
331.9356957E-3	-1.0833018E+0	3.0714284E+0	31.8999996E+0
331.7572581E-3	-1.1271997E+0	3.0697808E+0	32.0000000E+0
331.5833841E-3	-1.1856277E+0	3.0681753E+0	32.1000023E+0
331.4204903E-3	-1.1294343E+0	3.0666712E+0	32.2000008E+0
331.2529519E-3	-1.1153713E+0	3.0651242E+0	32.2999992E+0
331.0725786E-3	-1.1250350E+0	3.0634587E+0	32.4000015E+0
330.8939516E-3	-1.1345606E+0	3.0618093E+0	32.5000000E+0
330.7469916E-3	-1.1230628E+0	3.0604524E+0	32.6000023E+0
330.5614446E-3	-1.1375404E+0	3.0587391E+0	32.7000008E+0
330.3849734E-3	-1.1518583E+0	3.0571096E+0	32.7999992E+0
330.2388843E-3	-1.2152302E+0	3.0557607E+0	32.9000015E+0
330.0640349E-3	-1.2132160E+0	3.0541462E+0	33.0000000E+0
329.8672273E-3	-1.1230339E+0	3.0523290E+0	33.1000023E+0
329.7022950E-3	-1.1118146E+0	3.0508060E+0	33.2000008E+0
329.5037260E-3	-1.1817857E+0	3.0489725E+0	33.2999992E+0
329.3395165E-3	-1.1538490E+0	3.0474563E+0	33.4000015E+0
329.1648096E-3	-1.1844600E+0	3.0458431E+0	33.5000000E+0
329.0089318E-3	-1.1873168E+0	3.0444038E+0	33.6000023E+0
328.8287021E-3	-1.1190690E+0	3.0427396E+0	33.7000008E+0
328.6520214E-3	-1.1429269E+0	3.0411082E+0	33.7999992E+0
328.4365516E-3	-1.0890005E+0	3.0391187E+0	33.9000015E+0
328.2651720E-3	-1.1291020E+0	3.0375362E+0	34.0000000E+0
328.1009062E-3	-1.1738931E+0	3.0360194E+0	34.1000023E+0
327.9483719E-3	-1.1982425E+0	3.0346110E+0	34.2000008E+0
327.7769409E-3	-1.1063311E+0	3.0330281E+0	34.2999992E+0
327.6054339E-3	-1.1539698E+0	3.0314444E+0	34.4000015E+0
327.3891892E-3	-1.1076906E+0	3.0294477E+0	34.5000000E+0
327.2229357E-3	-1.0951212E+0	3.0279126E+0	34.6000023E+0
327.0469629E-3	-1.0588714E+0	3.0262877E+0	34.7000008E+0
326.8734224E-3	-1.1744255E+0	3.0246853E+0	34.7999992E+0
326.6891022E-3	-1.1609968E+0	3.0229834E+0	34.9000015E+0
326.5260095E-3	-1.1463011E+0	3.0214775E+0	35.0000000E+0
326.3235043E-3	-1.1309576E+0	3.0196076E+0	35.1000023E+0
326.1730409E-3	-1.1023043E+0	3.0182183E+0	35.2000008E+0
325.9677910E-3	-1.1192897E+0	3.0163231E+0	35.2999992E+0
325.8223952E-3	-1.1638774E+0	3.0149806E+0	35.4000015E+0
325.6296730E-3	-1.1335503E+0	3.0132010E+0	35.5000000E+0
325.4591849E-3	-1.0497643E+0	3.0116268E+0	35.6000023E+0
325.2788088E-3	-1.1118732E+0	3.0099613E+0	35.7000008E+0
325.0894184E-3	-1.0927171E+0	3.0082125E+0	35.7999992E+0
324.9258782E-3	-1.1151279E+0	3.0067025E+0	35.9000015E+0
324.7499746E-3	-1.1970138E+0	3.0050783E+0	36.0000000E+0
324.5925975E-3	-1.1663012E+0	3.0036251E+0	36.1000023E+0
324.3815594E-3	-1.1230428E+0	3.0016764E+0	36.2000008E+0
324.2007599E-3	-1.1608476E+0	3.0000070E+0	36.2999992E+0
324.0475921E-3	-1.1894071E+0	2.9985927E+0	36.4000015E+0
323.8407160E-3	-1.1383444E+0	2.9966825E+0	36.5000000E+0
323.6829389E-3	-1.1040387E+0	2.9952257E+0	36.6000023E+0
323.4998271E-3	-1.0854317E+0	2.9935349E+0	36.7000008E+0
323.3323987E-3	-1.0899550E+0	2.9919889E+0	36.7999992E+0
323.1159546E-3	-1.0572472E+0	2.9899903E+0	36.9000015E+0
322.9547927E-3	-1.1293719E+0	2.9885022E+0	37.0000000E+0
322.7648123E-3	-1.1911106E+0	2.9867480E+0	37.1000023E+0
322.6000302E-3	-1.1045714E+0	2.9852265E+0	37.2000008E+0
322.4228507E-3	-1.1601840E+0	2.9835905E+0	37.2999992E+0
322.2250297E-3	-1.1143216E+0	2.9817639E+0	37.4000015E+0
322.0586516E-3	-1.0995836E+0	2.9802276E+0	37.5000000E+0
321.8793465E-3	-1.1686100E+0	2.9785720E+0	37.6000023E+0
321.6789702E-3	-1.1166308E+0	2.9767218E+0	37.7000008E+0
321.5029733E-3	-1.1586072E+0	2.9750967E+0	37.7999992E+0
321.3462900E-3	-1.1995167E+0	2.9736500E+0	37.9000015E+0
321.1627101E-3	-1.1748371E+0	2.9719548E+0	38.0000000E+0
320.9626947E-3	-1.1306106E+0	2.9701080E+0	38.1000023E+0
320.7932351E-3	-1.1447253E+0	2.9685433E+0	38.2000008E+0
320.6001235E-3	-1.1475823E+0	2.9667601E+0	38.2999992E+0
320.4368834E-3	-1.1636528E+0	2.9652528E+0	38.4000015E+0
320.2276548E-3	-1.1387077E+0	2.9633209E+0	38.5000000E+0
320.0679408E-3	-1.1387288E+0	2.9618462E+0	38.6000023E+0
319.8828089E-3	-1.1290624E+0	2.9601367E+0	38.7000008E+0
319.6870454E-3	-1.1440259E+0	2.9583291E+0	38.7999992E+0
319.5291789E-3	-1.1391848E+0	2.9568715E+0	38.9000015E+0
319.3394086E-3	-1.1446590E+0	2.9551192E+0	39.0000000E+0
319.1443051E-3	-1.0887896E+0	2.9533177E+0	39.1000023E+0
318.9634180E-3	-1.1419870E+0	2.9516474E+0	39.2000008E+0
318.7912508E-3	-1.0952254E+0	2.9500577E+0	39.2999992E+0
318.6114892E-3	-1.1631270E+0	2.9483979E+0	39.4000015E+0
318.4319460E-3	-1.1704246E+0	2.9467400E+0	39.5000000E+0
318.2502353E-3	-1.1700262E+0	2.9450622E+0	39.6000023E+0
318.0745943E-3	-1.0944966E+0	2.9434404E+0	39.7000008E+0
317.8889607E-3	-1.1434868E+0	2.9417263E+0	39.7999992E+0
317.7078321E-3	-1.1712814E+0	2.9400539E+0	39.9000015E+0
317.5350771E-3	-1.1202534E+0	2.9384587E+0	40.0000000E+0
317.3541278E-3	-1.1417300E+0	2.9367879E+0	40.1000023E+0
317.1756131E-3	-1.0814196E+0	2.9351395E+0	40.2000008E+0
316.9866366E-3	-1.1313682E+0	2.9333946E+0	40.2999992E+0
316.8239662E-3	-1.1182060E+0	2.9318926E+0	40.4000015E+0
316.6255911E-3	-1.1041806E+0	2.9300609E+0	40.5000000E+0
316.4416452E-3	-1.1352711E+0	2.9283624E+0	40.6000023E+0
316.2521095E-3	-1.1310228E+0	2.9266123E+0	40.7000008E+0
316.0822360E-3	-1.1464093E+0	2.9250437E+0	40.7999992E+0
315.9442981E-3	-1.1805842E+0	2.9237701E+0	40.9000015E+0
315.7241289E-3	-1.1331198E+0	2.9217371E+0	41.0000000E+0
315.5669490E-3	-1.1412932E+0	2.9202858E+0	41.1000023E+0
315.3652856E-3	-1.1627100E+0	2.9184237E+0	41.2000008E+0
315.1914814E-3	-1.1311217E+0	2.9168188E+0	41.2999992E+0
314.9863315E-3	-1.0947163E+0	2.9149246E+0	41.4000015E+0
314.8080436E-3	-1.1479487E+0	2.9132783E+0	41.5000000E+0
314.6327657E-3	-1.1675465E+0	2.9116599E+0	41.6000023E+0
314.4622900E-3	-1.1425856E+0	2.9100858E+0	41.7000008E+0
314.2514028E-3	-1.1200876E+0	2.9081385E+0	41.7999992E+0
314.0623777E-3	-1.1499691E+0	2.9063931E+0	41.9000015E+0
313.8830541E-3	-1.1436135E+0	2.9047373E+0	42.0000000E+0
313.7009149E-3	-1.1147634E+0	2.9030555E+0	42.1000023E+0
313.4972839E-3	-1.1226153E+0	2.9011753E+0	42.2000008E+0
313.3143755E-3	-1.1611528E+0	2.8994864E+0	42.2999992E+0
313.1138014E-3	-1.0997201E+0	2.8976344E+0	42.4000015E+0
312.9369454E-3	-1.1128739E+0	2.8960013E+0	42.5000000E+0
312.7640004E-3	-1.1662991E+0	2.8944044E+0	42.6000023E+0
312.5804009E-3	-1.1295542E+0	2.8927091E+0	42.7000008E+0
312.3833687E-3	-1.1420072E+0	2.8908898E+0	42.7999992E+0
312.1835327E-3	-1.1464798E+0	2.8890446E+0	42.9000015E+0
312.0279717E-3	-1.1631944E+0	2.8876082E+0	43.0000000E+0
311.8290859E-3	-1.1512862E+0	2.8857718E+0	43.1000023E+0
311.6381541E-3	-1.1155273E+0	2.8840088E+0	43.2000008E+0
311.4629544E-3	-1.1749372E+0	2.8823911E+0	43.2999992E+0
311.2706350E-3	-1.1917333E+0	2.8806153E+0	43.4000015E+0
311.0628181E-3	-1.1371521E+0	2.8786964E+0	43.5000000E+0
310.8921301E-3	-1.1548197E+0	2.8771203E+0	43.6000023E+0
310.7144824E-3	-1.1876048E+0	2.8754800E+0	43.7000008E+0
310.5400062E-3	-1.2324393E+0	2.8738689E+0	43.7999992E+0
310.3425248E-3	-1.1774244E+0	2.8720455E+0	43.9000015E+0
310.1632811E-3	-1.1328215E+0	2.8703904E+0	44.0000000E+0
309.9470839E-3	-1.1715957E+0	2.8683941E+0	44.1000023E+0
309.7709999E-3	-1.1514266E+0	2.8667682E+0	44.2000008E+0
309.5989214E-3	-1.2002033E+0	2.8651793E+0	44.2999992E+0
309.4088103E-3	-1.1757061E+0	2.8634239E+0	44.4000015E+0
309.1937131E-3	-1.1699327E+0	2.8614378E+0	44.5000000E+0
309.0088215E-3	-1.1554485E+0	2.8597306E+0	44.6000023E+0
308.8104642E-3	-1.1904899E+0	2.8578990E+0	44.7000008E+0
308.6221011E-3	-1.1982578E+0	2.8561598E+0	44.7999992E+0
308.4280811E-3	-1.1722552E+0	2.8543682E+0	44.9000015E+0
308.2272155E-3	-1.0942229E+0	2.8525135E+0	45.0000000E+0
308.0448009E-3	-1.1392686E+0	2.8508292E+0	45.1000023E+0
307.8759117E-3	-1.1940805E+0	2.8492697E+0	45.2000008E+0
307.6949031E-3	-1.1614684E+0	2.8475984E+0	45.2999992E+0
307.5080451E-3	-1.1872574E+0	2.8458730E+0	45.4000015E+0
307.3060085E-3	-1.1823515E+0	2.8440075E+0	45.5000000E+0
307.1190018E-3	-1.1931466E+0	2.8422807E+0	45.6000023E+0
306.9410217E-3	-1.1588510E+0	2.8406373E+0	45.7000008E+0
306.7524536E-3	-1.1886564E+0	2.8388962E+0	45.7999992E+0
306.5467696E-3	-1.1660745E+0	2.8369969E+0	45.9000015E+0
306.3516788E-3	-1.1370635E+0	2.8351956E+0	46.0000000E+0
306.1652324E-3	-1.2126151E+0	2.8334740E+0	46.1000023E+0
305.9768251E-3	-1.2359831E+0	2.8317343E+0	46.2000008E+0
305.7609246E-3	-1.1268508E+0	2.8297408E+0	46.2999992E+0
305.5580775E-3	-1.1464756E+0	2.8278678E+0	46.4000015E+0
305.3945781E-3	-1.1989199E+0	2.8263581E+0	46.5000000E+0
305.2103485E-3	-1.1835134E+0	2.8246570E+0	46.6000023E+0
305.0311053E-3	-1.1865167E+0	2.8230019E+0	46.7000008E+0
304.8430668E-3	-1.2868935E+0	2.8212656E+0	46.7999992E+0
304.6418307E-3	-1.1932745E+0	2.8194075E+0	46.9000015E+0
304.4756968E-3	-1.2119369E+0	2.8178735E+0	47.0000000E+0
304.2796752E-3	-1.2103569E+0	2.8160635E+0	47.1000023E+0
304.0554006E-3	-1.1875362E+0	2.8139926E+0	47.2000008E+0
303.8758177E-3	-1.2749986E+0	2.8123344E+0	47.2999992E+0
303.6681874E-3	-1.2185278E+0	2.8104172E+0	47.4000015E+0
303.4866806E-3	-1.1860515E+0	2.8087413E+0	47.5000000E+0
303.3208500E-3	-1.2365502E+0	2.8072101E+0	47.6000023E+0
303.1241111E-3	-1.2053461E+0	2.8053935E+0	47.7000008E+0
302.9330056E-3	-1.2503374E+0	2.8036289E+0	47.7999992E+0
302.7396080E-3	-1.2405022E+0	2.8018431E+0	47.9000015E+0
302.5467405E-3	-1.2730937E+0	2.8000622E+0	48.0000000E+0
302.3553255E-3	-1.2790314E+0	2.7982948E+0	48.1000023E+0
302.1568174E-3	-1.2270584E+0	2.7964618E+0	48.2000008E+0
301.9551741E-3	-1.2448114E+0	2.7945999E+0	48.2999992E+0
301.7604497E-3	-1.2404033E+0	2.7928019E+0	48.4000015E+0
301.5778278E-3	-1.2702076E+0	2.7911157E+0	48.5000000E+0
301.3797164E-3	-1.3022144E+0	2.7892864E+0	48.6000023E+0
301.1825456E-3	-1.3093142E+0	2.7874658E+0	48.7000008E+0
301.0057281E-3	-1.2648127E+0	2.7858331E+0	48.7999992E+0
300.7918577E-3	-1.2008546E+0	2.7838583E+0	48.9000015E+0
300.6438988E-3	-1.3536199E+0	2.7824921E+0	49.0000000E+0
300.4307681E-3	-1.3399821E+0	2.7805242E+0	49.1000023E+0
300.2342666E-3	-1.3532536E+0	2.7787098E+0	49.2000008E+0
300.0514648E-3	-1.3611937E+0	2.7770218E+0	49.2999992E+0
299.8548036E-3	-1.3618317E+0	2.7752059E+0	49.4000015E+0
299.6470906E-3	-1.3745760E+0	2.7732880E+0	49.5000000E+0
299.4583236E-3	-1.4055928E+0	2.7715450E+0	49.6000023E+0
299.2435331E-3	-1.3662572E+0	2.7695617E+0	49.7000008E+0
299.0846638E-3	-1.3640038E+0	2.7680948E+0	49.7999992E+0
298.8893327E-3	-1.3798233E+0	2.7662912E+0	49.9000015E+0
298.7149280E-3	-1.3834772E+0	2.7646808E+0	50.0000000E+0
298.5052408E-3	-1.3989070E+0	2.7627446E+0	50.1000023E+0
298.3590880E-3	-1.4228165E+0	2.7613951E+0	50.2000008E+0
297.9722944E-3	-1.3697388E+0	2.7578236E+0	50.2999992E+0
297.8838175E-3	-1.4117511E+0	2.7570066E+0	50.4000015E+0
297.7343787E-3	-1.4618339E+0	2.7556268E+0	50.5000000E+0
297.5547461E-3	-1.4653749E+0	2.7539681E+0	50.6000023E+0
297.3447740E-3	-1.4657369E+0	2.7520293E+0	50.7000008E+0
297.1850148E-3	-1.5665684E+0	2.7505542E+0	50.7999992E+0
296.9751935E-3	-1.5307508E+0	2.7486167E+0	50.9000015E+0
296.7932453E-3	-1.5228015E+0	2.7469367E+0	51.0000000E+0
296.5929428E-3	-1.5318297E+0	2.7450872E+0	51.1000023E+0
296.4018222E-3	-1.5511910E+0	2.7433225E+0	51.2000008E+0
296.1809877E-3	-1.5941105E+0	2.7412834E+0	51.2999992E+0
295.9956441E-3	-1.5728755E+0	2.7395720E+0	51.4000015E+0
295.7818436E-3	-1.5247533E+0	2.7375978E+0	51.5000000E+0
295.5764082E-3	-1.4724230E+0	2.7357009E+0	51.6000023E+0
295.4024309E-3	-1.5168110E+0	2.7340945E+0	51.7000008E+0
295.2287222E-3	-1.5534158E+0	2.7324905E+0	51.7999992E+0
295.0040113E-3	-1.4837448E+0	2.7304156E+0	51.9000015E+0
294.8146555E-3	-1.5474187E+0	2.7286672E+0	52.0000000E+0
294.6146786E-3	-1.5523535E+0	2.7268207E+0	52.1000023E+0
294.4337271E-3	-1.5334130E+0	2.7251498E+0	52.2000008E+0
294.1958807E-3	-1.4508552E+0	2.7229537E+0	52.2999992E+0
294.0109823E-3	-1.4603735E+0	2.7212464E+0	52.4000015E+0
293.8418300E-3	-1.4830687E+0	2.7196845E+0	52.5000000E+0
293.6364393E-3	-1.4521292E+0	2.7177880E+0	52.6000023E+0
293.4159439E-3	-1.4465933E+0	2.7157520E+0	52.7000008E+0
293.2334589E-3	-1.3921957E+0	2.7140670E+0	52.7999992E+0
293.0209880E-3	-1.3122617E+0	2.7121052E+0	52.9000015E+0
292.8086578E-3	-1.3224739E+0	2.7101446E+0	53.0000000E+0
292.6125585E-3	-1.2889710E+0	2.7083339E+0	53.1000023E+0
292.4388309E-3	-1.2928326E+0	2.7067297E+0	53.2000008E+0
292.2271342E-3	-1.2334500E+0	2.7047750E+0	53.2999992E+0
292.0252680E-3	-1.1990491E+0	2.7029111E+0	53.4000015E+0
291.7986784E-3	-1.1179820E+0	2.7008188E+0	53.5000000E+0
291.6263943E-3	-1.1598730E+0	2.6992280E+0	53.6000023E+0
291.4141132E-3	-1.1249185E+0	2.6972679E+0	53.7000008E+0
291.2078578E-3	-1.1313282E+0	2.6953634E+0	53.7999992E+0
291.0163171E-3	-1.0393487E+0	2.6935948E+0	53.9000015E+0
290.8015691E-3	-980.3113263E-3	2.6916119E+0	54.0000000E+0
290.6123267E-3	-981.4126666E-3	2.6898645E+0	54.1000023E+0
290.4036729E-3	-1.0349979E+0	2.6879379E+0	54.2000008E+0
290.2262666E-3	-883.6830132E-3	2.6862998E+0	54.2999992E+0
289.9997965E-3	-924.6466811E-3	2.6842086E+0	54.4000015E+0
289.8123993E-3	-913.6917321E-3	2.6824783E+0	54.5000000E+0
289.6001244E-3	-867.3571609E-3	2.6805182E+0	54.6000023E+0
289.3910673E-3	-791.2554871E-3	2.6785879E+0	54.7000008E+0
289.1989585E-3	-842.7733427E-3	2.6768140E+0	54.7999992E+0
289.0073513E-3	-758.3116764E-3	2.6750448E+0	54.9000015E+0
288.8212284E-3	-828.9477141E-3	2.6733262E+0	55.0000000E+0
288.5797217E-3	-727.6962239E-3	2.6710962E+0	55.1000023E+0
288.3944647E-3	-772.2796699E-3	2.6693856E+0	55.2000008E+0
288.1988397E-3	-766.0534788E-3	2.6675793E+0	55.2999992E+0
288.0110090E-3	-774.2417452E-3	2.6658450E+0	55.4000015E+0
287.8424612E-3	-797.1277856E-3	2.6642887E+0	55.5000000E+0
287.6313958E-3	-836.3715723E-3	2.6623398E+0	55.6000023E+0
287.4032301E-3	-810.2015304E-3	2.6602330E+0	55.7000008E+0
287.1953267E-3	-797.4703505E-3	2.6583133E+0	55.7999992E+0
286.9995107E-3	-740.0946707E-3	2.6565052E+0	55.9000015E+0
286.8000243E-3	-777.7808366E-3	2.6546632E+0	56.0000000E+0
286.6309508E-3	-794.9595523E-3	2.6531020E+0	56.1000023E+0
286.4120302E-3	-803.9124179E-3	2.6510806E+0	56.2000008E+0
286.2123875E-3	-830.8748830E-3	2.6492372E+0	56.2999992E+0
286.0355605E-3	-742.6593735E-3	2.6476044E+0	56.4000015E+0
285.8391383E-3	-808.4902120E-3	2.6457908E+0	56.5000000E+0
285.6338946E-3	-823.0870270E-3	2.6438956E+0	56.6000023E+0
285.4404869E-3	-823.4865090E-3	2.6421098E+0	56.7000008E+0
285.2668553E-3	-815.2607930E-3	2.6405065E+0	56.7999992E+0
285.0402310E-3	-807.2497050E-3	2.6384140E+0	56.9000015E+0
284.8347141E-3	-835.3861191E-3	2.6365163E+0	57.0000000E+0
284.6451365E-3	-844.6925626E-3	2.6347658E+0	57.1000023E+0
284.4268064E-3	-790.9139384E-3	2.6327498E+0	57.2000008E+0
284.2320312E-3	-808.7963384E-3	2.6309513E+0	57.2999992E+0
284.0335398E-3	-868.3340358E-3	2.6291186E+0	57.4000015E+0
283.8266843E-3	-864.7098887E-3	2.6272085E+0	57.5000000E+0
283.6389710E-3	-867.6252653E-3	2.6254753E+0	57.6000023E+0
283.4212912E-3	-873.7867916E-3	2.6234653E+0	57.7000008E+0
283.1786074E-3	-902.2515697E-3	2.6212244E+0	57.7999992E+0
283.0078931E-3	-858.4804684E-3	2.6196481E+0	57.9000015E+0
282.8180798E-3	-929.2290661E-3	2.6178955E+0	58.0000000E+0
282.6061065E-3	-923.9191498E-3	2.6159382E+0	58.1000023E+0
282.4418552E-3	-935.8641687E-3	2.6144216E+0	58.2000008E+0
282.2439197E-3	-964.1880159E-3	2.6125939E+0	58.2999992E+0
282.0541103E-3	-886.0247110E-3	2.6108413E+0	58.4000015E+0
281.8235883E-3	-900.1503896E-3	2.6087127E+0	58.5000000E+0
281.6410742E-3	-911.7005535E-3	2.6070275E+0	58.6000023E+0
281.4491509E-3	-929.1875570E-3	2.6052553E+0	58.7000008E+0
281.2545695E-3	-950.4217184E-3	2.6034586E+0	58.7999992E+0
281.0463023E-3	-881.4845934E-3	2.6015356E+0	58.9000015E+0
280.8702317E-3	-973.8537478E-3	2.5999098E+0	59.0000000E+0
280.6596964E-3	-1.0030810E+0	2.5979658E+0	59.1000023E+0
280.4742864E-3	-960.2931801E-3	2.5962538E+0	59.2000008E+0
280.2716035E-3	-938.3274793E-3	2.5943823E+0	59.2999992E+0
280.0620469E-3	-947.1148140E-3	2.5924473E+0	59.4000015E+0
279.8571741E-3	-970.8544863E-3	2.5905556E+0	59.5000000E+0
279.6649156E-3	-962.3860295E-3	2.5887804E+0	59.6000023E+0
279.4596596E-3	-964.4018495E-3	2.5868851E+0	59.7000008E+0
279.2548862E-3	-965.8675848E-3	2.5849943E+0	59.7999992E+0
279.0583261E-3	-968.9391042E-3	2.5831794E+0	59.9000015E+0
278.8691613E-3	-984.6627417E-3	2.5814327E+0	60.0000000E+0
278.6996688E-3	-1.0296867E+0	2.5798677E+0	60.1000023E+0
