Magnetic Field (T)	Diode Voltage (V)	Hall probe (V)	Acquisition Time 		
Tesla	Volts	Volts	Seconds		
NaN	NaN	NaN	0.0000000E+0
NaN	NaN	NaN	100.0000015E-3
277.7734880E-3	-1.1113056E+0	2.5713157E+0	200.0000030E-3
277.7866046E-3	-1.1120390E+0	2.5714368E+0	300.0000119E-3
277.8501134E-3	-1.1541449E+0	2.5720232E+0	400.0000060E-3
278.0206852E-3	-1.1433844E+0	2.5735982E+0	500.0000000E-3
278.1678346E-3	-1.1597804E+0	2.5749569E+0	600.0000238E-3
278.3435053E-3	-1.1240029E+0	2.5765790E+0	699.9999881E-3
278.5001646E-3	-1.1266759E+0	2.5780255E+0	800.0000119E-3
278.6648555E-3	-1.1051986E+0	2.5795462E+0	900.0000358E-3
278.8441708E-3	-1.1275650E+0	2.5812019E+0	1.0000000E+0
278.9963905E-3	-1.1023216E+0	2.5826075E+0	1.1000000E+0
279.1937534E-3	-1.1140169E+0	2.5844299E+0	1.2000000E+0
279.3592136E-3	-1.0647366E+0	2.5859577E+0	1.3000001E+0
279.5318715E-3	-999.2126314E-3	2.5875519E+0	1.4000000E+0
279.7017964E-3	-1.0987460E+0	2.5891209E+0	1.5000000E+0
279.8793384E-3	-1.0815456E+0	2.5907603E+0	1.6000000E+0
280.0419926E-3	-1.1089158E+0	2.5922622E+0	1.7000000E+0
280.2302054E-3	-1.1213298E+0	2.5940001E+0	1.8000001E+0
280.3951372E-3	-1.0505371E+0	2.5955230E+0	1.9000000E+0
280.6062501E-3	-1.0754297E+0	2.5974723E+0	2.0000000E+0
280.7980120E-3	-1.1017776E+0	2.5992430E+0	2.1000001E+0
280.9671587E-3	-1.0892292E+0	2.6008048E+0	2.2000000E+0
281.1457366E-3	-1.1313084E+0	2.6024537E+0	2.3000000E+0
281.3067661E-3	-1.0742128E+0	2.6039406E+0	2.4000001E+0
281.4718163E-3	-1.0420891E+0	2.6054646E+0	2.5000000E+0
281.6667396E-3	-1.1169394E+0	2.6072644E+0	2.6000001E+0
281.8434030E-3	-1.1337892E+0	2.6088957E+0	2.7000000E+0
281.9993511E-3	-1.1130571E+0	2.6103357E+0	2.8000000E+0
282.2196711E-3	-1.0883711E+0	2.6123700E+0	2.9000001E+0
282.3956573E-3	-1.1009137E+0	2.6139950E+0	3.0000000E+0
282.5653186E-3	-1.0911262E+0	2.6155616E+0	3.1000001E+0
282.7645323E-3	-1.1029676E+0	2.6174010E+0	3.2000000E+0
282.9366588E-3	-1.0763548E+0	2.6189904E+0	3.3000000E+0
283.1398384E-3	-1.0486783E+0	2.6208665E+0	3.4000001E+0
283.3043020E-3	-1.0347385E+0	2.6223851E+0	3.5000000E+0
283.5112139E-3	-1.1079131E+0	2.6242956E+0	3.6000001E+0
283.6874124E-3	-1.1684027E+0	2.6259226E+0	3.7000000E+0
283.8757984E-3	-1.1232545E+0	2.6276620E+0	3.8000000E+0
284.0493948E-3	-1.0567118E+0	2.6292650E+0	3.9000001E+0
284.2561117E-3	-1.0835647E+0	2.6311737E+0	4.0000000E+0
284.4020997E-3	-1.0663166E+0	2.6325217E+0	4.0999999E+0
284.5993129E-3	-1.0916006E+0	2.6343427E+0	4.2000003E+0
284.8002584E-3	-1.0848399E+0	2.6361981E+0	4.3000002E+0
284.9780977E-3	-1.1006064E+0	2.6378402E+0	4.4000001E+0
285.1552577E-3	-1.0637737E+0	2.6394761E+0	4.5000000E+0
285.3113974E-3	-996.6185983E-3	2.6409178E+0	4.5999999E+0
285.5293537E-3	-1.0508468E+0	2.6429303E+0	4.7000003E+0
285.7160169E-3	-1.0295479E+0	2.6446539E+0	4.8000002E+0
285.8883758E-3	-1.0696964E+0	2.6462454E+0	4.9000001E+0
286.0833198E-3	-1.0384529E+0	2.6480454E+0	5.0000000E+0
286.2573798E-3	-1.0036654E+0	2.6496526E+0	5.0999999E+0
286.4474803E-3	-1.1069339E+0	2.6514079E+0	5.2000003E+0
286.6412869E-3	-1.0908037E+0	2.6531975E+0	5.3000002E+0
286.7979115E-3	-1.0854864E+0	2.6546437E+0	5.4000001E+0
286.9875444E-3	-1.1096033E+0	2.6563947E+0	5.5000000E+0
287.1879838E-3	-1.0683349E+0	2.6582455E+0	5.5999999E+0
287.3483263E-3	-1.0799678E+0	2.6597260E+0	5.7000003E+0
287.5572744E-3	-1.0950377E+0	2.6616554E+0	5.8000002E+0
287.7398069E-3	-1.0155786E+0	2.6633408E+0	5.9000001E+0
287.9363257E-3	-1.0484784E+0	2.6651554E+0	6.0000000E+0
288.1305658E-3	-1.0562187E+0	2.6669489E+0	6.0999999E+0
288.2971427E-3	-1.0518400E+0	2.6684870E+0	6.2000003E+0
288.4715274E-3	-1.0477796E+0	2.6700972E+0	6.3000002E+0
288.6956886E-3	-1.0663358E+0	2.6721670E+0	6.4000001E+0
288.8548746E-3	-1.0284911E+0	2.6736369E+0	6.5000000E+0
289.0422299E-3	-1.0004775E+0	2.6753669E+0	6.5999999E+0
289.2392370E-3	-1.0400375E+0	2.6771859E+0	6.7000003E+0
289.4058055E-3	-1.0485703E+0	2.6787240E+0	6.8000002E+0
289.6066002E-3	-1.0378560E+0	2.6805780E+0	6.9000001E+0
289.7763095E-3	-967.9567512E-3	2.6821451E+0	7.0000000E+0
289.9503897E-3	-979.5349506E-3	2.6837524E+0	7.0999999E+0
290.1372863E-3	-1.0020724E+0	2.6854782E+0	7.2000003E+0
290.3228143E-3	-961.9742861E-3	2.6871913E+0	7.3000002E+0
290.5319066E-3	-954.0585448E-3	2.6891219E+0	7.4000001E+0
290.7261008E-3	-986.9163196E-3	2.6909151E+0	7.5000000E+0
290.9038882E-3	-1.0182823E+0	2.6925567E+0	7.5999999E+0
291.0851687E-3	-1.0001186E+0	2.6942306E+0	7.7000003E+0
291.2744603E-3	-977.7599681E-3	2.6959784E+0	7.8000002E+0
291.4664691E-3	-1.0041138E+0	2.6977513E+0	7.9000001E+0
291.6442732E-3	-961.6951326E-3	2.6993931E+0	8.0000000E+0
291.8305783E-3	-960.2400905E-3	2.7011134E+0	8.1000004E+0
292.0190682E-3	-973.9247264E-3	2.7028538E+0	8.1999998E+0
292.1967259E-3	-947.4683765E-3	2.7044942E+0	8.3000002E+0
292.3600649E-3	-934.1778733E-3	2.7060024E+0	8.4000006E+0
292.5602579E-3	-952.0371125E-3	2.7078510E+0	8.5000000E+0
292.7633297E-3	-951.0184964E-3	2.7097260E+0	8.6000004E+0
292.9277218E-3	-965.5012400E-3	2.7112440E+0	8.6999998E+0
293.1146061E-3	-903.8674538E-3	2.7129696E+0	8.8000002E+0
293.3014368E-3	-937.8817064E-3	2.7146947E+0	8.9000006E+0
293.5103716E-3	-973.4995250E-3	2.7166239E+0	9.0000000E+0
293.7063680E-3	-968.9397438E-3	2.7184337E+0	9.1000004E+0
293.8799169E-3	-968.7123181E-3	2.7200362E+0	9.1999998E+0
294.0720911E-3	-898.9392283E-3	2.7218106E+0	9.3000002E+0
294.2457914E-3	-859.9289491E-3	2.7234145E+0	9.4000006E+0
294.4526418E-3	-914.2140083E-3	2.7253245E+0	9.5000000E+0
294.6359676E-3	-916.5211503E-3	2.7270172E+0	9.6000004E+0
294.8299652E-3	-910.4179751E-3	2.7288085E+0	9.6999998E+0
295.0118167E-3	-922.0439562E-3	2.7304877E+0	9.8000002E+0
295.1866477E-3	-945.0392037E-3	2.7321020E+0	9.9000006E+0
295.3805173E-3	-875.4266155E-3	2.7338921E+0	10.0000000E+0
295.5598868E-3	-843.9042145E-3	2.7355484E+0	10.1000004E+0
295.7536526E-3	-857.8399427E-3	2.7373375E+0	10.1999998E+0
295.9338186E-3	-820.7603606E-3	2.7390011E+0	10.3000002E+0
296.1034184E-3	-843.4916458E-3	2.7405671E+0	10.4000006E+0
296.3095169E-3	-831.2925636E-3	2.7424701E+0	10.5000000E+0
296.4949935E-3	-832.2245094E-3	2.7441828E+0	10.6000004E+0
296.6696675E-3	-793.4571928E-3	2.7457956E+0	10.6999998E+0
296.8422901E-3	-814.3374822E-3	2.7473896E+0	10.8000002E+0
297.0384385E-3	-806.4678925E-3	2.7492007E+0	10.9000006E+0
297.2213135E-3	-791.8662028E-3	2.7508893E+0	11.0000000E+0
297.4605453E-3	-794.9412402E-3	2.7530983E+0	11.1000004E+0
297.4769685E-3	-779.4608546E-3	2.7532499E+0	11.1999998E+0
297.7365954E-3	-709.7366397E-3	2.7556472E+0	11.3000002E+0
297.9616611E-3	-765.7637248E-3	2.7577254E+0	11.4000006E+0
298.1496085E-3	-745.3524414E-3	2.7594608E+0	11.5000000E+0
298.3513803E-3	-659.9457580E-3	2.7613239E+0	11.6000004E+0
298.5136574E-3	-690.7424073E-3	2.7628223E+0	11.6999998E+0
298.7304104E-3	-677.7466564E-3	2.7648237E+0	11.8000002E+0
298.9114703E-3	-734.0358365E-3	2.7664956E+0	11.9000006E+0
299.0919078E-3	-701.7492181E-3	2.7681617E+0	12.0000000E+0
299.2698236E-3	-644.6101871E-3	2.7698045E+0	12.1000004E+0
299.4549985E-3	-600.5573016E-3	2.7715143E+0	12.1999998E+0
299.6488716E-3	-632.8233434E-3	2.7733044E+0	12.3000002E+0
299.8399089E-3	-620.9364073E-3	2.7750684E+0	12.4000006E+0
299.9994441E-3	-632.7030356E-3	2.7765415E+0	12.5000000E+0
300.1899915E-3	-624.6219490E-3	2.7783009E+0	12.6000004E+0
300.3858796E-3	-637.2674592E-3	2.7801097E+0	12.6999998E+0
300.5595369E-3	-576.0404592E-3	2.7817132E+0	12.8000002E+0
300.7537155E-3	-577.9843205E-3	2.7835061E+0	12.9000006E+0
300.9500231E-3	-583.3179497E-3	2.7853188E+0	13.0000000E+0
301.1112991E-3	-645.3648978E-3	2.7868079E+0	13.1000004E+0
301.2954248E-3	-611.9974640E-3	2.7885081E+0	13.1999998E+0
301.4914598E-3	-580.1188956E-3	2.7903182E+0	13.3000002E+0
301.6793665E-3	-589.9943963E-3	2.7920532E+0	13.4000006E+0
301.8697335E-3	-567.6957508E-3	2.7938110E+0	13.5000000E+0
302.0721739E-3	-565.4985947E-3	2.7956803E+0	13.6000004E+0
302.2414073E-3	-600.1002835E-3	2.7972429E+0	13.6999998E+0
302.4322871E-3	-586.7513107E-3	2.7990054E+0	13.8000002E+0
302.6176943E-3	-626.2849544E-3	2.8007174E+0	13.9000006E+0
302.8328038E-3	-670.4037790E-3	2.8027036E+0	14.0000000E+0
303.0390431E-3	-700.6762332E-3	2.8046080E+0	14.1000004E+0
303.2334613E-3	-705.8234557E-3	2.8064032E+0	14.1999998E+0
303.4158151E-3	-824.8533745E-3	2.8080869E+0	14.3000002E+0
303.5951610E-3	-861.6217388E-3	2.8097429E+0	14.4000006E+0
303.8036170E-3	-882.8948663E-3	2.8116677E+0	14.5000000E+0
304.0031715E-3	-975.3941293E-3	2.8135104E+0	14.6000004E+0
304.2010511E-3	-1.0030149E+0	2.8153375E+0	14.6999998E+0
304.3959141E-3	-1.0646340E+0	2.8171368E+0	14.8000002E+0
304.5966965E-3	-1.1288454E+0	2.8189907E+0	14.9000006E+0
304.8119127E-3	-1.2316265E+0	2.8209780E+0	15.0000000E+0
305.0332885E-3	-1.3705380E+0	2.8230221E+0	15.1000004E+0
305.2224018E-3	-1.3858515E+0	2.8247683E+0	15.1999998E+0
305.3987155E-3	-1.4399836E+0	2.8263963E+0	15.3000002E+0
305.5851071E-3	-1.5065265E+0	2.8281173E+0	15.4000006E+0
305.7888067E-3	-1.5295925E+0	2.8299982E+0	15.5000000E+0
305.9877914E-3	-1.6062221E+0	2.8318356E+0	15.6000004E+0
306.1771891E-3	-1.6684436E+0	2.8335844E+0	15.6999998E+0
306.3889210E-3	-1.7154711E+0	2.8355394E+0	15.8000002E+0
306.5912916E-3	-1.7908769E+0	2.8374080E+0	15.9000006E+0
306.7839122E-3	-1.8215923E+0	2.8391866E+0	16.0000000E+0
306.9667474E-3	-1.8067760E+0	2.8408749E+0	16.1000004E+0
307.1353216E-3	-1.7792001E+0	2.8424314E+0	16.2000008E+0
307.3398491E-3	-1.8340373E+0	2.8443199E+0	16.3000011E+0
307.5571066E-3	-1.9038763E+0	2.8463260E+0	16.3999996E+0
307.7590191E-3	-1.8924808E+0	2.8481904E+0	16.5000000E+0
307.9305675E-3	-1.8625763E+0	2.8497744E+0	16.6000004E+0
308.1040946E-3	-1.8725722E+0	2.8513767E+0	16.7000008E+0
308.2806697E-3	-1.8244017E+0	2.8530071E+0	16.8000011E+0
308.4695668E-3	-1.8122776E+0	2.8547513E+0	16.8999996E+0
308.6526149E-3	-1.7489591E+0	2.8564415E+0	17.0000000E+0
308.8304492E-3	-1.7227080E+0	2.8580836E+0	17.1000004E+0
309.0334930E-3	-1.8084354E+0	2.8599584E+0	17.2000008E+0
309.2330598E-3	-1.7302051E+0	2.8618011E+0	17.3000011E+0
309.4267948E-3	-1.7177817E+0	2.8635900E+0	17.3999996E+0
309.6051905E-3	-1.7456808E+0	2.8652372E+0	17.5000000E+0
309.7842248E-3	-1.6540309E+0	2.8668903E+0	17.6000004E+0
309.9731167E-3	-1.6915300E+0	2.8686345E+0	17.7000008E+0
310.1626593E-3	-1.6311688E+0	2.8703847E+0	17.8000011E+0
310.3351473E-3	-1.5976472E+0	2.8719774E+0	17.8999996E+0
310.5390503E-3	-1.5951360E+0	2.8738601E+0	18.0000000E+0
310.7240749E-3	-1.5103433E+0	2.8755686E+0	18.1000004E+0
310.9260400E-3	-1.5225706E+0	2.8774334E+0	18.2000008E+0
311.0954152E-3	-1.4485662E+0	2.8789974E+0	18.3000011E+0
311.2962719E-3	-1.4773996E+0	2.8808520E+0	18.3999996E+0
311.4751268E-3	-1.4578425E+0	2.8825035E+0	18.5000000E+0
311.6695395E-3	-1.4619525E+0	2.8842986E+0	18.6000004E+0
311.8649494E-3	-1.4402452E+0	2.8861029E+0	18.7000008E+0
312.0767165E-3	-1.4107446E+0	2.8880583E+0	18.8000011E+0
312.2313378E-3	-1.3766392E+0	2.8894860E+0	18.8999996E+0
312.4453467E-3	-1.4290258E+0	2.8914621E+0	19.0000000E+0
312.6320087E-3	-1.3268648E+0	2.8931857E+0	19.1000004E+0
312.8294001E-3	-1.3743502E+0	2.8950083E+0	19.2000008E+0
313.0121941E-3	-1.2702940E+0	2.8966962E+0	19.3000011E+0
313.1849301E-3	-1.3286036E+0	2.8982911E+0	19.3999996E+0
313.3745949E-3	-1.2719150E+0	2.9000424E+0	19.5000000E+0
313.5482041E-3	-1.2559397E+0	2.9016455E+0	19.6000004E+0
313.7943978E-3	-1.3251823E+0	2.9039187E+0	19.7000008E+0
313.9716746E-3	-1.3004523E+0	2.9055556E+0	19.8000011E+0
314.1531590E-3	-1.2136795E+0	2.9072314E+0	19.8999996E+0
314.3683199E-3	-1.2988210E+0	2.9092181E+0	20.0000000E+0
314.5513708E-3	-1.3220983E+0	2.9109083E+0	20.1000004E+0
314.7141260E-3	-1.2550103E+0	2.9124111E+0	20.2000008E+0
314.9069762E-3	-1.2637757E+0	2.9141918E+0	20.3000011E+0
315.1136400E-3	-1.2547664E+0	2.9161001E+0	20.3999996E+0
315.3028713E-3	-1.2499256E+0	2.9178474E+0	20.5000000E+0
315.4975800E-3	-1.2187630E+0	2.9196452E+0	20.6000004E+0
315.6739629E-3	-1.1442901E+0	2.9212739E+0	20.7000008E+0
315.8554759E-3	-1.2007695E+0	2.9229499E+0	20.8000011E+0
316.0717591E-3	-1.2593272E+0	2.9249470E+0	20.8999996E+0
316.2283999E-3	-1.1950454E+0	2.9263934E+0	21.0000000E+0
316.4301393E-3	-1.2346924E+0	2.9282561E+0	21.1000004E+0
316.6095545E-3	-1.2340367E+0	2.9299128E+0	21.2000008E+0
316.8198133E-3	-1.1860199E+0	2.9318542E+0	21.3000011E+0
317.0056770E-3	-1.1903372E+0	2.9335704E+0	21.3999996E+0
317.1967411E-3	-1.2140165E+0	2.9353346E+0	21.5000000E+0
317.3657549E-3	-1.2034252E+0	2.9368952E+0	21.6000004E+0
317.5407127E-3	-1.1413165E+0	2.9385107E+0	21.7000008E+0
317.7220329E-3	-1.1235356E+0	2.9401850E+0	21.8000011E+0
317.9537895E-3	-1.1826580E+0	2.9423249E+0	21.8999996E+0
318.1355539E-3	-1.1720636E+0	2.9440033E+0	22.0000000E+0
318.3308302E-3	-1.2127431E+0	2.9458064E+0	22.1000004E+0
318.5016834E-3	-1.2019905E+0	2.9473840E+0	22.2000008E+0
318.7123781E-3	-1.1625251E+0	2.9493294E+0	22.3000011E+0
318.9241100E-3	-1.2151522E+0	2.9512845E+0	22.3999996E+0
319.0945249E-3	-1.2238084E+0	2.9528580E+0	22.5000000E+0
319.2752484E-3	-1.2079040E+0	2.9545268E+0	22.6000004E+0
319.4412673E-3	-1.2239846E+0	2.9560597E+0	22.7000008E+0
319.6403592E-3	-1.2167791E+0	2.9578981E+0	22.8000011E+0
319.8442935E-3	-1.1253455E+0	2.9597811E+0	22.8999996E+0
320.0192664E-3	-1.1191722E+0	2.9613967E+0	23.0000000E+0
320.2346937E-3	-1.1438043E+0	2.9633859E+0	23.1000004E+0
320.4182837E-3	-1.1716632E+0	2.9650811E+0	23.2000008E+0
320.6095792E-3	-1.1435309E+0	2.9668475E+0	23.3000011E+0
320.7898212E-3	-1.1443291E+0	2.9685117E+0	23.3999996E+0
320.9840652E-3	-1.1568807E+0	2.9703053E+0	23.5000000E+0
321.1943150E-3	-1.1364079E+0	2.9722467E+0	23.6000004E+0
321.4169824E-3	-1.1124217E+0	2.9743027E+0	23.7000008E+0
321.5975769E-3	-1.1184719E+0	2.9759702E+0	23.8000011E+0
321.7882472E-3	-1.1415151E+0	2.9777308E+0	23.8999996E+0
321.9653977E-3	-1.1341149E+0	2.9793666E+0	24.0000000E+0
322.1262960E-3	-1.1089408E+0	2.9808522E+0	24.1000004E+0
322.3427915E-3	-1.1034804E+0	2.9828513E+0	24.2000008E+0
322.5294999E-3	-1.1843904E+0	2.9845753E+0	24.3000011E+0
322.7447325E-3	-1.1738715E+0	2.9865626E+0	24.3999996E+0
322.9126656E-3	-1.1562850E+0	2.9881133E+0	24.5000000E+0
323.0868603E-3	-1.0964660E+0	2.9897217E+0	24.6000004E+0
323.3100852E-3	-1.1925265E+0	2.9917829E+0	24.7000008E+0
323.5015801E-3	-1.1333343E+0	2.9935511E+0	24.8000011E+0
323.6999201E-3	-1.1477883E+0	2.9953825E+0	24.8999996E+0
323.8996332E-3	-1.1348587E+0	2.9972265E+0	25.0000000E+0
324.0638873E-3	-1.1296052E+0	2.9987432E+0	25.1000004E+0
324.2544794E-3	-1.1210605E+0	3.0005030E+0	25.2000008E+0
324.4438006E-3	-1.1393640E+0	3.0022512E+0	25.3000011E+0
324.6372809E-3	-1.1490981E+0	3.0040377E+0	25.3999996E+0
324.8374404E-3	-1.1636649E+0	3.0058859E+0	25.5000000E+0
325.0084391E-3	-1.1174194E+0	3.0074648E+0	25.6000004E+0
325.2142995E-3	-1.1533209E+0	3.0093656E+0	25.7000008E+0
325.4101234E-3	-1.1822872E+0	3.0111738E+0	25.8000011E+0
325.6017909E-3	-1.1721334E+0	3.0129436E+0	25.8999996E+0
325.7997649E-3	-1.1716599E+0	3.0147716E+0	26.0000000E+0
326.0051288E-3	-1.1853232E+0	3.0166679E+0	26.1000004E+0
326.1721259E-3	-1.1387077E+0	3.0182098E+0	26.2000008E+0
326.3519059E-3	-1.1700254E+0	3.0198699E+0	26.3000011E+0
326.5604848E-3	-1.1950313E+0	3.0217958E+0	26.3999996E+0
326.7414369E-3	-1.1964444E+0	3.0234666E+0	26.5000000E+0
326.9536615E-3	-1.1680910E+0	3.0254262E+0	26.6000004E+0
327.1244651E-3	-1.1214306E+0	3.0270034E+0	26.7000008E+0
327.3169421E-3	-1.1278139E+0	3.0287806E+0	26.8000011E+0
327.4841615E-3	-1.1003009E+0	3.0303247E+0	26.8999996E+0
327.7263280E-3	-1.0934491E+0	3.0325607E+0	27.0000000E+0
327.8741813E-3	-1.1431540E+0	3.0339260E+0	27.1000004E+0
328.0711149E-3	-1.1227356E+0	3.0357444E+0	27.2000008E+0
328.2544259E-3	-1.1132921E+0	3.0374370E+0	27.3000011E+0
328.4314205E-3	-1.0478005E+0	3.0390713E+0	27.3999996E+0
328.6652541E-3	-1.1293444E+0	3.0412304E+0	27.5000000E+0
328.8591126E-3	-1.2085969E+0	3.0430204E+0	27.6000004E+0
329.0404664E-3	-1.1674144E+0	3.0446950E+0	27.7000008E+0
329.2404566E-3	-1.1472961E+0	3.0465416E+0	27.8000011E+0
329.4026185E-3	-1.1138323E+0	3.0480390E+0	27.8999996E+0
329.6091043E-3	-1.2071740E+0	3.0499456E+0	28.0000000E+0
329.8068330E-3	-1.0851873E+0	3.0517713E+0	28.1000004E+0
330.0040295E-3	-1.1473784E+0	3.0535921E+0	28.2000008E+0
330.1809537E-3	-1.1620003E+0	3.0552258E+0	28.3000011E+0
330.3798126E-3	-1.1814122E+0	3.0570620E+0	28.3999996E+0
330.5514845E-3	-1.1181137E+0	3.0586471E+0	28.5000000E+0
330.7735564E-3	-1.1277057E+0	3.0606977E+0	28.6000004E+0
330.9613189E-3	-1.1392728E+0	3.0624314E+0	28.7000008E+0
331.1479385E-3	-1.1586304E+0	3.0641546E+0	28.8000011E+0
331.3731421E-3	-1.1378901E+0	3.0662340E+0	28.8999996E+0
331.5569645E-3	-1.1751868E+0	3.0679313E+0	29.0000000E+0
331.7000733E-3	-1.1811013E+0	3.0692528E+0	29.1000004E+0
331.9268970E-3	-1.1799246E+0	3.0713472E+0	29.2000008E+0
332.1080524E-3	-1.1368032E+0	3.0730199E+0	29.3000011E+0
332.2875381E-3	-1.1205527E+0	3.0746772E+0	29.3999996E+0
332.4727683E-3	-1.1459550E+0	3.0763875E+0	29.5000000E+0
332.6768472E-3	-1.1767112E+0	3.0782719E+0	29.6000004E+0
332.8684890E-3	-1.0827398E+0	3.0800415E+0	29.7000008E+0
333.0590432E-3	-1.1038590E+0	3.0818010E+0	29.8000011E+0
333.2237900E-3	-1.0866081E+0	3.0833222E+0	29.8999996E+0
333.3946814E-3	-1.1129711E+0	3.0849001E+0	30.0000000E+0
333.6225180E-3	-1.1609973E+0	3.0870039E+0	30.1000004E+0
333.7909541E-3	-1.1382524E+0	3.0885591E+0	30.2000008E+0
333.9664203E-3	-1.1467345E+0	3.0901793E+0	30.3000011E+0
334.0598775E-3	-1.1587187E+0	3.0910423E+0	30.3999996E+0
334.0235006E-3	-1.1461259E+0	3.0907064E+0	30.5000000E+0
333.9155789E-3	-1.1604148E+0	3.0897099E+0	30.6000004E+0
333.7910921E-3	-1.1538168E+0	3.0885604E+0	30.7000008E+0
333.6300787E-3	-1.1635504E+0	3.0870737E+0	30.8000011E+0
333.4871945E-3	-1.1454373E+0	3.0857543E+0	30.8999996E+0
333.3304654E-3	-1.1087086E+0	3.0843072E+0	31.0000000E+0
333.1761273E-3	-1.1661518E+0	3.0828821E+0	31.1000004E+0
333.0147681E-3	-1.1295113E+0	3.0813921E+0	31.2000008E+0
332.8746224E-3	-1.1546546E+0	3.0800981E+0	31.3000011E+0
332.6932301E-3	-1.1394465E+0	3.0784232E+0	31.3999996E+0
332.5449528E-3	-1.1878368E+0	3.0770540E+0	31.5000000E+0
332.3564283E-3	-1.0847860E+0	3.0753133E+0	31.6000004E+0
332.1920797E-3	-1.1294932E+0	3.0737958E+0	31.7000008E+0
332.0362824E-3	-1.1323099E+0	3.0723572E+0	31.8000011E+0
331.8660497E-3	-1.1972031E+0	3.0707853E+0	31.8999996E+0
331.7041140E-3	-1.1245170E+0	3.0692901E+0	32.0000000E+0
331.5260987E-3	-1.1294609E+0	3.0676463E+0	32.1000023E+0
331.3340385E-3	-1.1174617E+0	3.0658729E+0	32.2000008E+0
331.1719687E-3	-1.0942219E+0	3.0643764E+0	32.2999992E+0
331.0036443E-3	-1.1045814E+0	3.0628222E+0	32.4000015E+0
330.8523296E-3	-1.1195075E+0	3.0614250E+0	32.5000000E+0
330.6845068E-3	-1.1451725E+0	3.0598754E+0	32.6000023E+0
330.4728659E-3	-1.0800603E+0	3.0579212E+0	32.7000008E+0
330.2958035E-3	-1.1003358E+0	3.0562863E+0	32.7999992E+0
330.1720997E-3	-1.1439025E+0	3.0551440E+0	32.9000015E+0
329.9711223E-3	-1.1159091E+0	3.0532883E+0	33.0000000E+0
329.7886775E-3	-1.1157676E+0	3.0516037E+0	33.1000023E+0
329.6177314E-3	-1.1461574E+0	3.0500252E+0	33.2000008E+0
329.4521047E-3	-1.1122918E+0	3.0484959E+0	33.2999992E+0
329.2845484E-3	-1.1151244E+0	3.0469487E+0	33.4000015E+0
329.0874341E-3	-1.0741556E+0	3.0451287E+0	33.5000000E+0
328.9303938E-3	-1.1290150E+0	3.0436786E+0	33.6000023E+0
328.7547198E-3	-1.1368316E+0	3.0420565E+0	33.7000008E+0
328.5607965E-3	-1.1601788E+0	3.0402659E+0	33.7999992E+0
328.3881303E-3	-1.1588555E+0	3.0386716E+0	33.9000015E+0
328.1856552E-3	-1.0915568E+0	3.0368020E+0	34.0000000E+0
328.0386862E-3	-1.1184947E+0	3.0354449E+0	34.1000023E+0
327.8528884E-3	-1.1433961E+0	3.0337293E+0	34.2000008E+0
327.6760804E-3	-1.1447375E+0	3.0320968E+0	34.2999992E+0
327.4859827E-3	-1.1623172E+0	3.0303415E+0	34.4000015E+0
327.3232420E-3	-1.1535370E+0	3.0288388E+0	34.5000000E+0
327.1525204E-3	-1.1518685E+0	3.0272624E+0	34.6000023E+0
326.9739689E-3	-1.1319216E+0	3.0256137E+0	34.7000008E+0
326.8197710E-3	-1.1866665E+0	3.0241899E+0	34.7999992E+0
326.6341905E-3	-1.1692374E+0	3.0224764E+0	34.9000015E+0
326.4699794E-3	-1.1712686E+0	3.0209601E+0	35.0000000E+0
326.2958708E-3	-1.1238684E+0	3.0193525E+0	35.1000023E+0
326.0958576E-3	-1.1426917E+0	3.0175056E+0	35.2000008E+0
325.9507512E-3	-1.1290764E+0	3.0161658E+0	35.2999992E+0
325.7360752E-3	-1.1839298E+0	3.0141835E+0	35.4000015E+0
325.5573432E-3	-1.1606699E+0	3.0125332E+0	35.5000000E+0
325.3953594E-3	-1.1061843E+0	3.0110375E+0	35.6000023E+0
325.2196140E-3	-1.1317926E+0	3.0094147E+0	35.7000008E+0
325.0447377E-3	-1.1682712E+0	3.0078000E+0	35.7999992E+0
324.8490781E-3	-1.0947834E+0	3.0059933E+0	35.9000015E+0
324.6499862E-3	-1.1812713E+0	3.0041550E+0	36.0000000E+0
324.5048295E-3	-1.1775149E+0	3.0028147E+0	36.1000023E+0
324.3228506E-3	-1.1173864E+0	3.0011344E+0	36.2000008E+0
324.1358506E-3	-1.1485939E+0	2.9994077E+0	36.2999992E+0
324.0000440E-3	-1.1832043E+0	2.9981537E+0	36.4000015E+0
323.8108719E-3	-1.1811101E+0	2.9964069E+0	36.5000000E+0
323.6386141E-3	-1.1768932E+0	2.9948164E+0	36.6000023E+0
323.4422271E-3	-1.1283540E+0	2.9930030E+0	36.7000008E+0
323.2526121E-3	-1.0889294E+0	2.9912522E+0	36.7999992E+0
323.0679143E-3	-1.1500830E+0	2.9895468E+0	36.9000015E+0
322.8765557E-3	-1.1307325E+0	2.9877798E+0	37.0000000E+0
322.7113162E-3	-1.1718168E+0	2.9862541E+0	37.1000023E+0
322.5336171E-3	-1.1220322E+0	2.9846133E+0	37.2000008E+0
322.3356369E-3	-1.1143952E+0	2.9827852E+0	37.2999992E+0
322.1536899E-3	-1.0789390E+0	2.9811052E+0	37.4000015E+0
321.9729998E-3	-1.0995970E+0	2.9794367E+0	37.5000000E+0
321.7981185E-3	-1.1085797E+0	2.9778220E+0	37.6000023E+0
321.6290763E-3	-1.1416003E+0	2.9762611E+0	37.7000008E+0
321.4692830E-3	-1.1562564E+0	2.9747856E+0	37.7999992E+0
321.2697441E-3	-1.1581762E+0	2.9729432E+0	37.9000015E+0
321.1018935E-3	-1.1599975E+0	2.9713933E+0	38.0000000E+0
320.9500631E-3	-1.1963739E+0	2.9699913E+0	38.1000023E+0
320.7386681E-3	-1.1372273E+0	2.9680394E+0	38.2000008E+0
320.5462989E-3	-1.1735805E+0	2.9662631E+0	38.2999992E+0
320.3543208E-3	-1.1834344E+0	2.9644905E+0	38.4000015E+0
320.1985174E-3	-1.2070848E+0	2.9630519E+0	38.5000000E+0
320.0119459E-3	-1.1629203E+0	2.9613291E+0	38.6000023E+0
319.8158405E-3	-1.1671859E+0	2.9595184E+0	38.7000008E+0
319.6304846E-3	-1.1647437E+0	2.9578069E+0	38.7999992E+0
319.4453544E-3	-1.1258616E+0	2.9560975E+0	38.9000015E+0
319.2425525E-3	-1.1409825E+0	2.9542249E+0	39.0000000E+0
319.0650841E-3	-1.1700334E+0	2.9525862E+0	39.1000023E+0
318.8810668E-3	-1.1142371E+0	2.9508870E+0	39.2000008E+0
318.7159328E-3	-1.1404337E+0	2.9493623E+0	39.2999992E+0
318.5191146E-3	-1.1565423E+0	2.9475449E+0	39.4000015E+0
318.3585297E-3	-1.2276280E+0	2.9460621E+0	39.5000000E+0
318.1608036E-3	-1.1634311E+0	2.9442364E+0	39.6000023E+0
317.9707897E-3	-1.1273862E+0	2.9424819E+0	39.7000008E+0
317.7969615E-3	-1.1238235E+0	2.9408768E+0	39.7999992E+0
317.6127559E-3	-1.2001995E+0	2.9391760E+0	39.9000015E+0
317.4212219E-3	-1.1521718E+0	2.9374074E+0	40.0000000E+0
317.2651682E-3	-1.1966326E+0	2.9359665E+0	40.1000023E+0
317.0839312E-3	-1.1945762E+0	2.9342930E+0	40.2000008E+0
316.8948838E-3	-1.1688293E+0	2.9325474E+0	40.2999992E+0
316.7205980E-3	-1.2346834E+0	2.9309381E+0	40.4000015E+0
316.5251976E-3	-1.1766651E+0	2.9291339E+0	40.5000000E+0
316.3547364E-3	-1.2488343E+0	2.9275599E+0	40.6000023E+0
316.1929588E-3	-1.2419627E+0	2.9260661E+0	40.7000008E+0
316.0094487E-3	-1.2620140E+0	2.9243716E+0	40.7999992E+0
315.8153538E-3	-1.1915363E+0	2.9225794E+0	40.9000015E+0
315.6556404E-3	-1.2705195E+0	2.9211047E+0	41.0000000E+0
315.4450694E-3	-1.1895007E+0	2.9191604E+0	41.1000023E+0
315.2760283E-3	-1.1854393E+0	2.9175995E+0	41.2000008E+0
315.0627484E-3	-1.1943116E+0	2.9156302E+0	41.2999992E+0
314.9037590E-3	-1.2052449E+0	2.9141621E+0	41.4000015E+0
314.7281866E-3	-1.2671671E+0	2.9125410E+0	41.5000000E+0
314.5617963E-3	-1.2166163E+0	2.9110046E+0	41.6000023E+0
314.3643356E-3	-1.2982918E+0	2.9091813E+0	41.7000008E+0
314.1828785E-3	-1.3378085E+0	2.9075058E+0	41.7999992E+0
313.9742438E-3	-1.3457243E+0	2.9055794E+0	41.9000015E+0
313.7892717E-3	-1.3171549E+0	2.9038714E+0	42.0000000E+0
313.6070565E-3	-1.3277073E+0	2.9021889E+0	42.1000023E+0
313.4254536E-3	-1.3259137E+0	2.9005120E+0	42.2000008E+0
313.2584872E-3	-1.3054885E+0	2.8989703E+0	42.2999992E+0
313.0733425E-3	-1.3660775E+0	2.8972608E+0	42.4000015E+0
312.8751199E-3	-1.3575026E+0	2.8954305E+0	42.5000000E+0
312.6951946E-3	-1.3959888E+0	2.8937691E+0	42.6000023E+0
312.5143285E-3	-1.3558135E+0	2.8920991E+0	42.7000008E+0
312.3100658E-3	-1.3756877E+0	2.8902130E+0	42.7999992E+0
312.1179648E-3	-1.3868242E+0	2.8884392E+0	42.9000015E+0
311.9298301E-3	-1.4048617E+0	2.8867020E+0	43.0000000E+0
311.7594002E-3	-1.4031220E+0	2.8851283E+0	43.1000023E+0
311.5693718E-3	-1.4390041E+0	2.8833737E+0	43.2000008E+0
311.3820768E-3	-1.4255245E+0	2.8816443E+0	43.2999992E+0
311.2111994E-3	-1.4366230E+0	2.8800665E+0	43.4000015E+0
311.0352131E-3	-1.4561411E+0	2.8784415E+0	43.5000000E+0
310.8438076E-3	-1.5241921E+0	2.8766741E+0	43.6000023E+0
310.6417543E-3	-1.5085270E+0	2.8748084E+0	43.7000008E+0
310.4712674E-3	-1.5829699E+0	2.8732342E+0	43.7999992E+0
310.2673990E-3	-1.5696620E+0	2.8713518E+0	43.9000015E+0
310.0972205E-3	-1.6131794E+0	2.8697804E+0	44.0000000E+0
309.9019530E-3	-1.5836037E+0	2.8679774E+0	44.1000023E+0
309.7264433E-3	-1.6176959E+0	2.8663568E+0	44.2000008E+0
309.5222079E-3	-1.6427495E+0	2.8644710E+0	44.2999992E+0
309.3276511E-3	-1.6545368E+0	2.8626745E+0	44.4000015E+0
309.1627283E-3	-1.6475516E+0	2.8611517E+0	44.5000000E+0
308.9745702E-3	-1.6802124E+0	2.8594143E+0	44.6000023E+0
308.7987918E-3	-1.6986264E+0	2.8577912E+0	44.7000008E+0
308.6357594E-3	-1.7515107E+0	2.8562859E+0	44.7999992E+0
308.4291003E-3	-1.7063467E+0	2.8543777E+0	44.9000015E+0
308.2429163E-3	-1.7763713E+0	2.8526585E+0	45.0000000E+0
308.0603570E-3	-1.7502126E+0	2.8509728E+0	45.1000023E+0
307.8752189E-3	-1.8030220E+0	2.8492633E+0	45.2000008E+0
307.6817761E-3	-1.7285738E+0	2.8474772E+0	45.2999992E+0
307.5006189E-3	-1.8191186E+0	2.8458044E+0	45.4000015E+0
307.3285516E-3	-1.8250108E+0	2.8442156E+0	45.5000000E+0
307.1237185E-3	-1.7906387E+0	2.8423243E+0	45.6000023E+0
306.9167725E-3	-1.7245451E+0	2.8404134E+0	45.7000008E+0
306.7503754E-3	-1.7322740E+0	2.8388770E+0	45.7999992E+0
306.5544421E-3	-1.7526213E+0	2.8370678E+0	45.9000015E+0
306.3292345E-3	-1.6830936E+0	2.8349883E+0	46.0000000E+0
306.1429960E-3	-1.6323745E+0	2.8332687E+0	46.1000023E+0
305.9412080E-3	-1.5842933E+0	2.8314054E+0	46.2000008E+0
305.7635799E-3	-1.5473905E+0	2.8297653E+0	46.2999992E+0
305.5749556E-3	-1.4321992E+0	2.8280236E+0	46.4000015E+0
305.3404681E-3	-1.3811722E+0	2.8258584E+0	46.5000000E+0
305.1494307E-3	-1.3192547E+0	2.8240945E+0	46.6000023E+0
304.9710987E-3	-1.1949271E+0	2.8224478E+0	46.7000008E+0
304.7748335E-3	-1.2313685E+0	2.8206356E+0	46.7999992E+0
304.5764595E-3	-1.1566623E+0	2.8188039E+0	46.9000015E+0
304.3717034E-3	-1.0619386E+0	2.8169132E+0	47.0000000E+0
304.1660882E-3	-994.6030774E-3	2.8150147E+0	47.1000023E+0
303.9534720E-3	-928.6802607E-3	2.8130514E+0	47.2000008E+0
303.7602023E-3	-901.8837805E-3	2.8112669E+0	47.2999992E+0
303.5465542E-3	-781.1494141E-3	2.8092941E+0	47.4000015E+0
303.3333794E-3	-757.7378891E-3	2.8073258E+0	47.5000000E+0
303.1659845E-3	-807.2180431E-3	2.8057801E+0	47.6000023E+0
302.9554314E-3	-773.7409123E-3	2.8038359E+0	47.7000008E+0
302.7554457E-3	-769.1019404E-3	2.8019893E+0	47.7999992E+0
302.5562431E-3	-682.6709358E-3	2.8001500E+0	47.9000015E+0
302.3724358E-3	-638.2000447E-3	2.7984528E+0	48.0000000E+0
302.1637508E-3	-658.6907045E-3	2.7965259E+0	48.1000023E+0
301.9612751E-3	-645.3280569E-3	2.7946563E+0	48.2000008E+0
301.7610039E-3	-628.2428721E-3	2.7928071E+0	48.2999992E+0
301.5794468E-3	-605.2089166E-3	2.7911306E+0	48.4000015E+0
301.3698925E-3	-578.8401499E-3	2.7891957E+0	48.5000000E+0
301.1822685E-3	-614.4498184E-3	2.7874632E+0	48.6000023E+0
301.0064404E-3	-678.1021121E-3	2.7858397E+0	48.7000008E+0
300.8103110E-3	-640.8017534E-3	2.7840287E+0	48.7999992E+0
300.6124346E-3	-639.1519068E-3	2.7822016E+0	48.9000015E+0
300.4454884E-3	-703.5421104E-3	2.7806601E+0	49.0000000E+0
300.2732624E-3	-688.8392865E-3	2.7790698E+0	49.1000023E+0
300.0488353E-3	-656.5319368E-3	2.7769976E+0	49.2000008E+0
299.8893928E-3	-675.2517562E-3	2.7755253E+0	49.2999992E+0
299.6825530E-3	-630.9638363E-3	2.7736154E+0	49.4000015E+0
299.4829499E-3	-652.7820862E-3	2.7717724E+0	49.5000000E+0
299.3019414E-3	-750.0559286E-3	2.7701010E+0	49.6000023E+0
299.1203865E-3	-740.0309756E-3	2.7684246E+0	49.7000008E+0
298.9105876E-3	-708.2744378E-3	2.7664874E+0	49.7999992E+0
298.7390158E-3	-657.5714906E-3	2.7649032E+0	49.9000015E+0
298.5390110E-3	-685.8325816E-3	2.7630564E+0	50.0000000E+0
298.3536680E-3	-761.1316032E-3	2.7613450E+0	50.1000023E+0
298.1689584E-3	-758.6621955E-3	2.7596395E+0	50.2000008E+0
297.9721916E-3	-792.1878404E-3	2.7578226E+0	50.2999992E+0
297.7752147E-3	-761.9035375E-3	2.7560038E+0	50.4000015E+0
297.5769892E-3	-740.4989396E-3	2.7541735E+0	50.5000000E+0
297.3826140E-3	-759.1412808E-3	2.7523787E+0	50.6000023E+0
297.1957520E-3	-827.7947285E-3	2.7506533E+0	50.7000008E+0
297.0307309E-3	-855.8049491E-3	2.7491296E+0	50.7999992E+0
296.7949609E-3	-844.5926612E-3	2.7469525E+0	50.9000015E+0
296.6171205E-3	-873.9308432E-3	2.7453104E+0	51.0000000E+0
296.4291110E-3	-843.1744702E-3	2.7435744E+0	51.1000023E+0
296.2095659E-3	-787.9566657E-3	2.7415472E+0	51.2000008E+0
296.0485682E-3	-859.7747975E-3	2.7400606E+0	51.2999992E+0
295.8449423E-3	-874.3283753E-3	2.7381804E+0	51.4000015E+0
295.6593964E-3	-917.6606571E-3	2.7364672E+0	51.5000000E+0
295.4829342E-3	-947.2496683E-3	2.7348378E+0	51.6000023E+0
295.2630019E-3	-857.4532224E-3	2.7328070E+0	51.7000008E+0
295.0633430E-3	-914.5031071E-3	2.7309635E+0	51.7999992E+0
294.8725157E-3	-965.4368949E-3	2.7292014E+0	51.9000015E+0
294.6721623E-3	-858.8895449E-3	2.7273515E+0	52.0000000E+0
294.4830149E-3	-893.4299063E-3	2.7256049E+0	52.1000023E+0
294.2892944E-3	-896.8898430E-3	2.7238162E+0	52.2000008E+0
294.0790843E-3	-879.0357880E-3	2.7218752E+0	52.2999992E+0
293.9177178E-3	-919.2136869E-3	2.7203852E+0	52.4000015E+0
293.7124953E-3	-981.8322093E-3	2.7184903E+0	52.5000000E+0
293.4909658E-3	-990.5804593E-3	2.7164447E+0	52.6000023E+0
293.3046580E-3	-984.1379071E-3	2.7147245E+0	52.7000008E+0
293.1137089E-3	-1.0062655E+0	2.7129613E+0	52.7999992E+0
292.9194862E-3	-989.2312405E-3	2.7111679E+0	52.9000015E+0
292.7185591E-3	-1.0143395E+0	2.7093126E+0	53.0000000E+0
292.5245134E-3	-1.0290864E+0	2.7075209E+0	53.1000023E+0
292.3255288E-3	-1.0536963E+0	2.7056836E+0	53.2000008E+0
292.1072255E-3	-1.0123093E+0	2.7036678E+0	53.2999992E+0
291.8992964E-3	-1.0377953E+0	2.7017479E+0	53.4000015E+0
291.7215962E-3	-1.0347749E+0	2.7001071E+0	53.5000000E+0
291.5082543E-3	-976.2501135E-3	2.6981372E+0	53.6000023E+0
291.3508542E-3	-1.0286397E+0	2.6966838E+0	53.7000008E+0
291.1169005E-3	-1.0522146E+0	2.6945235E+0	53.7999992E+0
290.9411516E-3	-1.0545785E+0	2.6929008E+0	53.9000015E+0
290.7395743E-3	-1.0341331E+0	2.6910395E+0	54.0000000E+0
290.5209962E-3	-996.6133729E-3	2.6890212E+0	54.1000023E+0
290.3168747E-3	-981.6502182E-3	2.6871364E+0	54.2000008E+0
290.1511693E-3	-1.0367933E+0	2.6856064E+0	54.2999992E+0
289.9433932E-3	-992.3356133E-3	2.6836878E+0	54.4000015E+0
289.7373841E-3	-1.0331906E+0	2.6817856E+0	54.5000000E+0
289.5666893E-3	-1.0973361E+0	2.6802095E+0	54.6000023E+0
289.3764687E-3	-1.0815114E+0	2.6784531E+0	54.7000008E+0
289.1744082E-3	-1.0138133E+0	2.6765873E+0	54.7999992E+0
288.9740313E-3	-1.0548783E+0	2.6747371E+0	54.9000015E+0
288.7851604E-3	-1.0435124E+0	2.6729932E+0	55.0000000E+0
288.5833116E-3	-1.0344720E+0	2.6711294E+0	55.1000023E+0
288.3973741E-3	-1.0680983E+0	2.6694125E+0	55.2000008E+0
288.1708990E-3	-1.0659201E+0	2.6673213E+0	55.2999992E+0
287.9707462E-3	-1.0043481E+0	2.6654732E+0	55.4000015E+0
287.7706677E-3	-1.0225481E+0	2.6636257E+0	55.5000000E+0
287.5851219E-3	-1.0671305E+0	2.6619125E+0	55.6000023E+0
287.3724347E-3	-1.0915899E+0	2.6599486E+0	55.7000008E+0
287.1843889E-3	-1.0804079E+0	2.6582123E+0	55.7999992E+0
286.9980738E-3	-1.0815478E+0	2.6564919E+0	55.9000015E+0
286.8022064E-3	-1.1041547E+0	2.6546833E+0	56.0000000E+0
286.6013520E-3	-1.0591639E+0	2.6528287E+0	56.1000023E+0
286.3910754E-3	-1.0717461E+0	2.6508871E+0	56.2000008E+0
286.2155818E-3	-1.1335920E+0	2.6492667E+0	56.2999992E+0
285.9945233E-3	-1.0787752E+0	2.6472255E+0	56.4000015E+0
285.7936711E-3	-1.0832230E+0	2.6453709E+0	56.5000000E+0
285.5760176E-3	-1.0839928E+0	2.6433612E+0	56.6000023E+0
285.3742503E-3	-1.0528513E+0	2.6414982E+0	56.7000008E+0
285.1706707E-3	-1.0737865E+0	2.6396184E+0	56.7999992E+0
284.9785552E-3	-1.1356595E+0	2.6378445E+0	56.9000015E+0
284.7797750E-3	-1.0675564E+0	2.6360090E+0	57.0000000E+0
284.5701839E-3	-1.0768030E+0	2.6340737E+0	57.1000023E+0
284.3771566E-3	-1.0670218E+0	2.6322914E+0	57.2000008E+0
284.1850182E-3	-1.0915129E+0	2.6305173E+0	57.2999992E+0
283.9816979E-3	-1.0651483E+0	2.6286399E+0	57.4000015E+0
283.7859522E-3	-1.1204682E+0	2.6268324E+0	57.5000000E+0
283.5810448E-3	-1.1358671E+0	2.6249404E+0	57.6000023E+0
283.3722296E-3	-1.1013996E+0	2.6230123E+0	57.7000008E+0
283.1778136E-3	-1.0942268E+0	2.6212171E+0	57.7999992E+0
282.9810428E-3	-1.0990658E+0	2.6194002E+0	57.9000015E+0
282.7688149E-3	-1.0679386E+0	2.6174406E+0	58.0000000E+0
282.5805451E-3	-1.1110666E+0	2.6157022E+0	58.1000023E+0
282.4084727E-3	-1.1290822E+0	2.6141133E+0	58.2000008E+0
282.2070708E-3	-1.1462042E+0	2.6122537E+0	58.2999992E+0
281.9911859E-3	-1.1356140E+0	2.6102603E+0	58.4000015E+0
281.7670459E-3	-1.0265758E+0	2.6081906E+0	58.5000000E+0
281.5861290E-3	-1.1486851E+0	2.6065201E+0	58.6000023E+0
281.3900314E-3	-1.1450052E+0	2.6047094E+0	58.7000008E+0
281.2105469E-3	-1.1478922E+0	2.6030521E+0	58.7999992E+0
280.9820808E-3	-1.1206437E+0	2.6009426E+0	58.9000015E+0
280.7901680E-3	-1.1300653E+0	2.5991705E+0	59.0000000E+0
280.6151750E-3	-1.1345500E+0	2.5975547E+0	59.1000023E+0
280.3959740E-3	-1.0983660E+0	2.5955307E+0	59.2000008E+0
280.2014250E-3	-1.1127601E+0	2.5937343E+0	59.2999992E+0
279.9866094E-3	-1.0782931E+0	2.5917508E+0	59.4000015E+0
279.8031256E-3	-1.1282257E+0	2.5900566E+0	59.5000000E+0
279.6011091E-3	-1.1070951E+0	2.5881912E+0	59.6000023E+0
279.4222827E-3	-1.1189951E+0	2.5865400E+0	59.7000008E+0
279.1796146E-3	-1.0820899E+0	2.5842993E+0	59.7999992E+0
279.0117751E-3	-1.1271946E+0	2.5827495E+0	59.9000015E+0
278.8239779E-3	-1.1163151E+0	2.5810155E+0	60.0000000E+0
