Magnetic Field (T)	Diode Voltage (V)	Hall probe (V)	Acquisition Time 		
Tesla	Volts	Volts	Seconds		
NaN	NaN	NaN	0.0000000E+0
NaN	NaN	NaN	100.0000015E-3
277.7413039E-3	-1.1104992E+0	2.5710185E+0	200.0000030E-3
277.7930101E-3	-1.0632261E+0	2.5714959E+0	300.0000119E-3
277.8517066E-3	-1.1203790E+0	2.5720379E+0	400.0000060E-3
278.0112882E-3	-1.0867965E+0	2.5735114E+0	500.0000000E-3
278.1657872E-3	-1.0947009E+0	2.5749380E+0	600.0000238E-3
278.3275486E-3	-1.0889271E+0	2.5764317E+0	699.9999881E-3
278.4841627E-3	-1.1255505E+0	2.5778778E+0	800.0000119E-3
278.6472933E-3	-1.0818563E+0	2.5793841E+0	900.0000358E-3
278.8101234E-3	-1.0868594E+0	2.5808876E+0	1.0000000E+0
279.0070193E-3	-1.1177062E+0	2.5827056E+0	1.1000000E+0
279.1691265E-3	-1.0791645E+0	2.5842025E+0	1.2000000E+0
279.3446284E-3	-1.1241954E+0	2.5858230E+0	1.3000001E+0
279.5195756E-3	-1.0508502E+0	2.5874384E+0	1.4000000E+0
279.6845543E-3	-1.0972802E+0	2.5889617E+0	1.5000000E+0
279.8777826E-3	-1.0748227E+0	2.5907459E+0	1.6000000E+0
280.0621592E-3	-1.0491953E+0	2.5924484E+0	1.7000000E+0
280.2399728E-3	-1.0800754E+0	2.5940902E+0	1.8000001E+0
280.3989734E-3	-1.0280287E+0	2.5955584E+0	1.9000000E+0
280.6115494E-3	-1.1166202E+0	2.5975212E+0	2.0000000E+0
280.7800274E-3	-1.1171645E+0	2.5990769E+0	2.1000001E+0
280.9542769E-3	-1.0723696E+0	2.6006858E+0	2.2000000E+0
281.0933728E-3	-1.0164053E+0	2.6019702E+0	2.3000000E+0
281.3086711E-3	-1.0928316E+0	2.6039582E+0	2.4000001E+0
281.4700918E-3	-1.0785288E+0	2.6054487E+0	2.5000000E+0
281.6787237E-3	-1.0989852E+0	2.6073751E+0	2.6000001E+0
281.8688488E-3	-1.1016703E+0	2.6091306E+0	2.7000000E+0
282.0585091E-3	-1.0538591E+0	2.6108819E+0	2.8000000E+0
282.2243162E-3	-1.0423279E+0	2.6124129E+0	2.9000001E+0
282.3867212E-3	-1.0807595E+0	2.6139125E+0	3.0000000E+0
282.5799948E-3	-1.0875502E+0	2.6156971E+0	3.1000001E+0
282.7648094E-3	-1.1507175E+0	2.6174036E+0	3.2000000E+0
282.9744932E-3	-1.1098454E+0	2.6193397E+0	3.3000000E+0
283.1100625E-3	-1.0918945E+0	2.6205915E+0	3.4000001E+0
283.3227809E-3	-1.1078981E+0	2.6225557E+0	3.5000000E+0
283.4846770E-3	-1.1422279E+0	2.6240506E+0	3.6000001E+0
283.6733155E-3	-1.1453183E+0	2.6257924E+0	3.7000000E+0
283.8812363E-3	-1.1245331E+0	2.6277122E+0	3.8000000E+0
284.0568415E-3	-1.1141090E+0	2.6293337E+0	3.9000001E+0
284.2415410E-3	-1.1487998E+0	2.6310392E+0	4.0000000E+0
284.4102649E-3	-1.1081630E+0	2.6325971E+0	4.0999999E+0
284.5897935E-3	-1.0617221E+0	2.6342548E+0	4.2000003E+0
284.8033890E-3	-1.0976519E+0	2.6362270E+0	4.3000002E+0
284.9782669E-3	-1.1182961E+0	2.6378418E+0	4.4000001E+0
285.1498483E-3	-1.1082371E+0	2.6394261E+0	4.5000000E+0
285.3450386E-3	-1.1076768E+0	2.6412284E+0	4.5999999E+0
285.5376061E-3	-1.0692202E+0	2.6430065E+0	4.7000003E+0
285.7107522E-3	-1.0838883E+0	2.6446053E+0	4.8000002E+0
285.8843636E-3	-1.0999730E+0	2.6462083E+0	4.9000001E+0
286.0752630E-3	-1.0921603E+0	2.6479710E+0	5.0000000E+0
286.2279045E-3	-1.0838959E+0	2.6493805E+0	5.0999999E+0
286.4381618E-3	-1.0622748E+0	2.6513219E+0	5.2000003E+0
286.6045726E-3	-1.0684737E+0	2.6528585E+0	5.3000002E+0
286.7945172E-3	-1.1545543E+0	2.6546123E+0	5.4000001E+0
286.9652661E-3	-1.0646722E+0	2.6561890E+0	5.5000000E+0
287.1445501E-3	-1.1360532E+0	2.6578444E+0	5.5999999E+0
287.3402443E-3	-1.1287950E+0	2.6596514E+0	5.7000003E+0
287.5107502E-3	-1.1215750E+0	2.6612258E+0	5.8000002E+0
287.7286412E-3	-1.1478298E+0	2.6632377E+0	5.9000001E+0
287.8804297E-3	-1.0953620E+0	2.6646392E+0	6.0000000E+0
288.0889303E-3	-1.0868307E+0	2.6665645E+0	6.0999999E+0
288.2806503E-3	-1.1279935E+0	2.6683347E+0	6.2000003E+0
288.4726944E-3	-1.1085071E+0	2.6701080E+0	6.3000002E+0
288.6427020E-3	-1.0837034E+0	2.6716778E+0	6.4000001E+0
288.8204541E-3	-1.0374670E+0	2.6733191E+0	6.5000000E+0
289.0186008E-3	-1.0125102E+0	2.6751487E+0	6.5999999E+0
289.1974691E-3	-1.0693033E+0	2.6768003E+0	6.7000003E+0
289.3978392E-3	-1.1066985E+0	2.6786504E+0	6.8000002E+0
289.5569052E-3	-1.0424709E+0	2.6801192E+0	6.9000001E+0
289.7688130E-3	-1.0835539E+0	2.6820758E+0	7.0000000E+0
289.9363620E-3	-1.0656539E+0	2.6836229E+0	7.0999999E+0
290.1289736E-3	-1.0707617E+0	2.6854014E+0	7.2000003E+0
290.3134173E-3	-1.0558105E+0	2.6871045E+0	7.3000002E+0
290.4952509E-3	-1.0764631E+0	2.6887835E+0	7.4000001E+0
290.6712427E-3	-1.0820571E+0	2.6904085E+0	7.5000000E+0
290.8759021E-3	-1.0602845E+0	2.6922983E+0	7.5999999E+0
291.0485309E-3	-1.0597521E+0	2.6938923E+0	7.7000003E+0
291.2695420E-3	-1.0734299E+0	2.6959330E+0	7.8000002E+0
291.4555587E-3	-1.0710197E+0	2.6976506E+0	7.9000001E+0
291.6416727E-3	-1.0860147E+0	2.6993691E+0	8.0000000E+0
291.8172204E-3	-1.0752430E+0	2.7009900E+0	8.1000004E+0
292.0271384E-3	-1.0435955E+0	2.7029283E+0	8.1999998E+0
292.2096072E-3	-1.0325579E+0	2.7046132E+0	8.3000002E+0
292.3788941E-3	-1.1201374E+0	2.7061763E+0	8.4000006E+0
292.5621283E-3	-1.0362768E+0	2.7078682E+0	8.5000000E+0
292.7580125E-3	-1.0805131E+0	2.7096769E+0	8.6000004E+0
292.9362333E-3	-1.0591821E+0	2.7113226E+0	8.6999998E+0
293.1500473E-3	-1.0219871E+0	2.7132968E+0	8.8000002E+0
293.3354842E-3	-1.0632649E+0	2.7150091E+0	8.9000006E+0
293.5330141E-3	-1.0606152E+0	2.7168330E+0	9.0000000E+0
293.7017961E-3	-1.0372063E+0	2.7183915E+0	9.1000004E+0
293.8847096E-3	-1.0959345E+0	2.7200804E+0	9.1999998E+0
294.0813719E-3	-1.0904798E+0	2.7218963E+0	9.3000002E+0
294.2906452E-3	-1.1186936E+0	2.7238287E+0	9.4000006E+0
294.4578506E-3	-1.0574610E+0	2.7253726E+0	9.5000000E+0
294.6291789E-3	-1.0625856E+0	2.7269546E+0	9.6000004E+0
294.8175766E-3	-1.0821728E+0	2.7286942E+0	9.6999998E+0
295.0062559E-3	-1.0307003E+0	2.7304363E+0	9.8000002E+0
295.1906308E-3	-997.7200469E-3	2.7321388E+0	9.9000006E+0
295.3802984E-3	-1.0139952E+0	2.7338901E+0	10.0000000E+0
295.5650085E-3	-1.0246220E+0	2.7355956E+0	10.1000004E+0
295.7290497E-3	-1.0542684E+0	2.7371103E+0	10.1999998E+0
295.9397978E-3	-1.0916887E+0	2.7390563E+0	10.3000002E+0
296.1110171E-3	-1.0430186E+0	2.7406373E+0	10.4000006E+0
296.3073722E-3	-1.0108008E+0	2.7424503E+0	10.5000000E+0
296.4983040E-3	-1.0675525E+0	2.7442133E+0	10.6000004E+0
296.6744433E-3	-1.0179686E+0	2.7458397E+0	10.6999998E+0
296.8633444E-3	-978.3104551E-3	2.7475840E+0	10.8000002E+0
297.0494835E-3	-925.9762107E-3	2.7493027E+0	10.9000006E+0
297.2028178E-3	-1.0210251E+0	2.7507185E+0	11.0000000E+0
297.4375475E-3	-1.0054810E+0	2.7528859E+0	11.1000004E+0
297.8579605E-3	-1.0339777E+0	2.7567679E+0	11.1999998E+0
297.7637328E-3	-982.0840650E-3	2.7558978E+0	11.3000002E+0
298.0528581E-3	-1.0316897E+0	2.7585675E+0	11.4000006E+0
298.2027527E-3	-1.0198627E+0	2.7599515E+0	11.5000000E+0
298.3662113E-3	-1.0038957E+0	2.7614609E+0	11.6000004E+0
298.5595575E-3	-965.6595028E-3	2.7632461E+0	11.6999998E+0
298.7448190E-3	-896.3973253E-3	2.7649568E+0	11.8000002E+0
298.9235069E-3	-919.4025593E-3	2.7666067E+0	11.9000006E+0
299.1391169E-3	-1.0185708E+0	2.7685976E+0	12.0000000E+0
299.3500678E-3	-1.0221808E+0	2.7705454E+0	12.1000004E+0
299.4788103E-3	-978.7065997E-3	2.7717342E+0	12.1999998E+0
299.6988716E-3	-953.6374751E-3	2.7737661E+0	12.3000002E+0
299.8803651E-3	-987.5444396E-3	2.7754420E+0	12.4000006E+0
300.0467487E-3	-931.5803480E-3	2.7769783E+0	12.5000000E+0
300.2596068E-3	-1.0146576E+0	2.7789437E+0	12.6000004E+0
300.4376260E-3	-948.2121050E-3	2.7805875E+0	12.6999998E+0
300.6192580E-3	-996.4689241E-3	2.7822646E+0	12.8000002E+0
300.8104758E-3	-972.3666621E-3	2.7840302E+0	12.9000006E+0
300.9890681E-3	-942.7886537E-3	2.7856793E+0	13.0000000E+0
301.1954716E-3	-906.6216170E-3	2.7875851E+0	13.1000004E+0
301.3762321E-3	-919.6833377E-3	2.7892542E+0	13.1999998E+0
301.5777440E-3	-892.2195600E-3	2.7911149E+0	13.3000002E+0
301.7453830E-3	-887.5614301E-3	2.7926628E+0	13.4000006E+0
301.9476899E-3	-896.8057467E-3	2.7945308E+0	13.5000000E+0
302.1249259E-3	-851.5519908E-3	2.7961674E+0	13.6000004E+0
302.3338120E-3	-882.1103766E-3	2.7980961E+0	13.6999998E+0
302.5033258E-3	-880.3492441E-3	2.7996614E+0	13.8000002E+0
302.6965648E-3	-902.9692228E-3	2.8014457E+0	13.9000006E+0
302.8920473E-3	-844.5515235E-3	2.8032507E+0	14.0000000E+0
303.0912051E-3	-811.3638268E-3	2.8050896E+0	14.1000004E+0
303.2974986E-3	-867.9297296E-3	2.8069944E+0	14.1999998E+0
303.4710251E-3	-810.9061691E-3	2.8085967E+0	14.3000002E+0
303.6548838E-3	-763.4148777E-3	2.8102944E+0	14.4000006E+0
303.8399000E-3	-790.9038745E-3	2.8120028E+0	14.5000000E+0
304.0362524E-3	-782.2541125E-3	2.8138158E+0	14.6000004E+0
304.2089906E-3	-757.8412312E-3	2.8154108E+0	14.6999998E+0
304.4044625E-3	-693.6281183E-3	2.8172157E+0	14.8000002E+0
304.5844387E-3	-678.7144217E-3	2.8188775E+0	14.9000006E+0
304.7551083E-3	-683.0804043E-3	2.8204534E+0	15.0000000E+0
304.9438238E-3	-666.4352552E-3	2.8221960E+0	15.1000004E+0
305.1273988E-3	-656.7194061E-3	2.8238910E+0	15.1999998E+0
305.3178730E-3	-644.9124139E-3	2.8256498E+0	15.3000002E+0
305.4846963E-3	-589.4814258E-3	2.8271902E+0	15.4000006E+0
305.6576397E-3	-595.7344660E-3	2.8287871E+0	15.5000000E+0
305.8676732E-3	-566.8943573E-3	2.8307264E+0	15.6000004E+0
306.0337351E-3	-521.1599788E-3	2.8322598E+0	15.6999998E+0
306.2399079E-3	-469.4868315E-3	2.8341635E+0	15.8000002E+0
306.4549112E-3	-427.2350503E-3	2.8361488E+0	15.9000006E+0
306.6119504E-3	-435.1797145E-3	2.8375988E+0	16.0000000E+0
306.7996627E-3	-422.4165323E-3	2.8393321E+0	16.1000004E+0
306.9882883E-3	-412.7938107E-3	2.8410738E+0	16.2000008E+0
307.1630305E-3	-356.7806400E-3	2.8426873E+0	16.3000011E+0
307.3494013E-3	-390.7592528E-3	2.8444081E+0	16.3999996E+0
307.5089070E-3	-383.1974128E-3	2.8458810E+0	16.5000000E+0
307.7205160E-3	-331.4691384E-3	2.8478349E+0	16.6000004E+0
307.9142106E-3	-364.3605501E-3	2.8496234E+0	16.7000008E+0
308.1038635E-3	-356.4679106E-3	2.8513745E+0	16.8000011E+0
308.2973643E-3	-368.7151541E-3	2.8531613E+0	16.8999996E+0
308.5046560E-3	-347.5164046E-3	2.8550753E+0	17.0000000E+0
308.6954283E-3	-348.8147610E-3	2.8568368E+0	17.1000004E+0
308.8710604E-3	-360.7218762E-3	2.8584585E+0	17.2000008E+0
309.0765044E-3	-358.9210881E-3	2.8603555E+0	17.3000011E+0
309.2526158E-3	-339.7144045E-3	2.8619817E+0	17.3999996E+0
309.4338455E-3	-316.2380341E-3	2.8636551E+0	17.5000000E+0
309.6348044E-3	-337.6881388E-3	2.8655107E+0	17.6000004E+0
309.8191816E-3	-307.8408551E-3	2.8672131E+0	17.7000008E+0
310.0136328E-3	-268.2962706E-3	2.8690086E+0	17.8000011E+0
310.1829215E-3	-225.0301547E-3	2.8705718E+0	17.8999996E+0
310.3493208E-3	-128.8780899E-3	2.8721082E+0	18.0000000E+0
310.5927363E-3	-214.5171408E-3	2.8743558E+0	18.1000004E+0
310.7551167E-3	-177.2025244E-3	2.8758552E+0	18.2000008E+0
310.9536796E-3	-220.1826932E-3	2.8776886E+0	18.3000011E+0
311.1501783E-3	-377.6149404E-3	2.8795030E+0	18.3999996E+0
311.3842416E-3	-603.8079183E-3	2.8816643E+0	18.5000000E+0
311.6072883E-3	-788.7619538E-3	2.8837238E+0	18.6000004E+0
311.8158772E-3	-1.0729630E+0	2.8856498E+0	18.7000008E+0
312.0484243E-3	-1.4033087E+0	2.8877971E+0	18.8000011E+0
312.2868294E-3	-1.6803598E+0	2.8899984E+0	18.8999996E+0
312.5387537E-3	-1.9964523E+0	2.8923246E+0	19.0000000E+0
312.7543090E-3	-2.2699092E+0	2.8943149E+0	19.1000004E+0
312.9814875E-3	-2.4306891E+0	2.8964126E+0	19.2000008E+0
313.1858100E-3	-2.5939491E+0	2.8982993E+0	19.3000011E+0
313.3832880E-3	-2.6769581E+0	2.9001227E+0	19.3999996E+0
313.5733499E-3	-2.7825715E+0	2.9018777E+0	19.5000000E+0
313.7823970E-3	-2.8142282E+0	2.9038079E+0	19.6000004E+0
313.9597161E-3	-2.8048768E+0	2.9054452E+0	19.7000008E+0
314.1712994E-3	-2.7857451E+0	2.9073989E+0	19.8000011E+0
314.3367999E-3	-2.6803984E+0	2.9089271E+0	19.8999996E+0
314.5385554E-3	-2.6041324E+0	2.9107900E+0	20.0000000E+0
314.7103429E-3	-2.5257726E+0	2.9123762E+0	20.1000004E+0
314.8839940E-3	-2.4492982E+0	2.9139796E+0	20.2000008E+0
315.0507201E-3	-2.3275498E+0	2.9155191E+0	20.3000011E+0
315.2090179E-3	-2.2801054E+0	2.9169808E+0	20.3999996E+0
315.4174823E-3	-2.1708658E+0	2.9189057E+0	20.5000000E+0
315.6026013E-3	-2.1544288E+0	2.9206150E+0	20.6000004E+0
315.7807115E-3	-2.0203918E+0	2.9222596E+0	20.7000008E+0
315.9732377E-3	-1.9757602E+0	2.9240373E+0	20.8000011E+0
316.1343594E-3	-1.9189948E+0	2.9255250E+0	20.8999996E+0
316.3304218E-3	-1.8466686E+0	2.9273354E+0	21.0000000E+0
316.4947011E-3	-1.7977175E+0	2.9288523E+0	21.1000004E+0
316.6778916E-3	-1.7633660E+0	2.9305438E+0	21.2000008E+0
316.8368827E-3	-1.6751472E+0	2.9320118E+0	21.3000011E+0
317.0197549E-3	-1.6231853E+0	2.9337004E+0	21.3999996E+0
317.2013477E-3	-1.6157910E+0	2.9353772E+0	21.5000000E+0
317.3977470E-3	-1.5652150E+0	2.9371906E+0	21.6000004E+0
317.5847352E-3	-1.5016031E+0	2.9389172E+0	21.7000008E+0
317.7485687E-3	-1.4575433E+0	2.9404300E+0	21.8000011E+0
317.9675686E-3	-1.4349302E+0	2.9424522E+0	21.8999996E+0
318.1679850E-3	-1.4559106E+0	2.9443027E+0	22.0000000E+0
318.3441327E-3	-1.3970739E+0	2.9459292E+0	22.1000004E+0
318.5366505E-3	-1.3880792E+0	2.9477068E+0	22.2000008E+0
318.7174411E-3	-1.4107096E+0	2.9493762E+0	22.3000011E+0
318.9100527E-3	-1.3529408E+0	2.9511547E+0	22.3999996E+0
319.1026884E-3	-1.2962169E+0	2.9529334E+0	22.5000000E+0
319.2759172E-3	-1.3130386E+0	2.9545329E+0	22.6000004E+0
319.4711583E-3	-1.2936016E+0	2.9563357E+0	22.7000008E+0
319.6667553E-3	-1.3297407E+0	2.9581418E+0	22.8000011E+0
319.8765744E-3	-1.3045784E+0	2.9600792E+0	22.8999996E+0
320.0495473E-3	-1.2417824E+0	2.9616763E+0	23.0000000E+0
320.2379316E-3	-1.1904730E+0	2.9634158E+0	23.1000004E+0
320.4563153E-3	-1.1649332E+0	2.9654323E+0	23.2000008E+0
320.6369764E-3	-1.2765238E+0	2.9671004E+0	23.3000011E+0
320.8174491E-3	-1.2251095E+0	2.9687668E+0	23.3999996E+0
320.9787312E-3	-1.1996590E+0	2.9702561E+0	23.5000000E+0
321.1988903E-3	-1.2153550E+0	2.9722889E+0	23.6000004E+0
321.4039246E-3	-1.2683185E+0	2.9741821E+0	23.7000008E+0
321.5737853E-3	-1.2147727E+0	2.9757506E+0	23.8000011E+0
321.7791033E-3	-1.2144761E+0	2.9776464E+0	23.8999996E+0
321.9924625E-3	-1.2079043E+0	2.9796165E+0	24.0000000E+0
322.1737822E-3	-1.1522289E+0	2.9812907E+0	24.1000004E+0
322.3573973E-3	-1.1639827E+0	2.9829861E+0	24.2000008E+0
322.5446314E-3	-1.1865964E+0	2.9847150E+0	24.3000011E+0
322.7226489E-3	-1.0968698E+0	2.9863587E+0	24.3999996E+0
322.8985877E-3	-1.1223485E+0	2.9879833E+0	24.5000000E+0
323.1168790E-3	-1.1787348E+0	2.9899989E+0	24.6000004E+0
323.3305686E-3	-1.1655178E+0	2.9919720E+0	24.7000008E+0
323.4828207E-3	-1.1688210E+0	2.9933778E+0	24.8000011E+0
323.6971224E-3	-1.1780238E+0	2.9953566E+0	24.8999996E+0
323.8935361E-3	-1.1504901E+0	2.9971702E+0	25.0000000E+0
324.0807808E-3	-1.1374130E+0	2.9988992E+0	25.1000004E+0
324.2483784E-3	-1.1925158E+0	3.0004467E+0	25.2000008E+0
324.4393672E-3	-1.1762027E+0	3.0022102E+0	25.3000011E+0
324.6468891E-3	-1.1654688E+0	3.0041264E+0	25.3999996E+0
324.8524725E-3	-1.1644897E+0	3.0060247E+0	25.5000000E+0
325.0132669E-3	-1.1544768E+0	3.0075094E+0	25.6000004E+0
325.1892744E-3	-1.0614816E+0	3.0091346E+0	25.7000008E+0
325.3836217E-3	-1.1330122E+0	3.0109291E+0	25.8000011E+0
325.5714150E-3	-1.1009169E+0	3.0126631E+0	25.8999996E+0
325.7659427E-3	-1.1169484E+0	3.0144593E+0	26.0000000E+0
325.9212574E-3	-1.1042662E+0	3.0158934E+0	26.1000004E+0
326.1498386E-3	-1.1299249E+0	3.0180041E+0	26.2000008E+0
326.3397833E-3	-1.1379504E+0	3.0197579E+0	26.3000011E+0
326.5350546E-3	-1.1439236E+0	3.0215610E+0	26.3999996E+0
326.7346700E-3	-1.1989212E+0	3.0234042E+0	26.5000000E+0
326.9171293E-3	-1.1763837E+0	3.0250889E+0	26.6000004E+0
327.1109917E-3	-1.1238218E+0	3.0268790E+0	26.7000008E+0
327.2964939E-3	-1.1165694E+0	3.0285918E+0	26.8000011E+0
327.4971154E-3	-1.1715036E+0	3.0304443E+0	26.8999996E+0
327.7049647E-3	-1.1690282E+0	3.0323635E+0	27.0000000E+0
327.8849861E-3	-1.1107670E+0	3.0340257E+0	27.1000004E+0
328.0794876E-3	-1.1234208E+0	3.0358217E+0	27.2000008E+0
328.2489623E-3	-1.1425359E+0	3.0373865E+0	27.3000011E+0
328.4563635E-3	-1.0647616E+0	3.0393016E+0	27.3999996E+0
328.6343185E-3	-1.1144301E+0	3.0409448E+0	27.5000000E+0
328.8492531E-3	-1.1437403E+0	3.0429294E+0	27.6000004E+0
329.0129318E-3	-1.1350241E+0	3.0444407E+0	27.7000008E+0
329.2088735E-3	-1.1173634E+0	3.0462500E+0	27.8000011E+0
329.4158194E-3	-1.0847751E+0	3.0481608E+0	27.8999996E+0
329.6052791E-3	-1.0924443E+0	3.0499102E+0	28.0000000E+0
329.7890948E-3	-1.0751514E+0	3.0516075E+0	28.1000004E+0
329.9979759E-3	-1.0904109E+0	3.0535363E+0	28.2000008E+0
330.2030298E-3	-1.1443777E+0	3.0554296E+0	28.3000011E+0
330.3936710E-3	-1.1247855E+0	3.0571899E+0	28.3999996E+0
330.5956651E-3	-1.1709922E+0	3.0590551E+0	28.5000000E+0
330.7670174E-3	-1.1541856E+0	3.0606373E+0	28.6000004E+0
330.9739957E-3	-1.1402735E+0	3.0625484E+0	28.7000008E+0
331.1674286E-3	-1.0903846E+0	3.0643345E+0	28.8000011E+0
331.3419244E-3	-1.1083843E+0	3.0659457E+0	28.8999996E+0
331.5344779E-3	-1.1011404E+0	3.0677237E+0	29.0000000E+0
331.7171143E-3	-1.0945906E+0	3.0694101E+0	29.1000004E+0
331.9234831E-3	-1.1026030E+0	3.0713156E+0	29.2000008E+0
332.1096803E-3	-1.1296070E+0	3.0730349E+0	29.3000011E+0
332.3025663E-3	-1.1651337E+0	3.0748159E+0	29.3999996E+0
332.4824117E-3	-1.1758641E+0	3.0764766E+0	29.5000000E+0
332.6570354E-3	-1.1547376E+0	3.0780890E+0	29.6000004E+0
332.8355562E-3	-1.0804108E+0	3.0797374E+0	29.7000008E+0
333.0358509E-3	-1.1522967E+0	3.0815868E+0	29.8000011E+0
333.2148505E-3	-1.0720531E+0	3.0832396E+0	29.8999996E+0
333.4042337E-3	-1.0677884E+0	3.0849883E+0	30.0000000E+0
333.6065161E-3	-1.0707291E+0	3.0868561E+0	30.1000004E+0
333.7737047E-3	-1.1158498E+0	3.0883999E+0	30.2000008E+0
333.9973577E-3	-1.1488642E+0	3.0904650E+0	30.3000011E+0
334.1090173E-3	-1.1612500E+0	3.0914960E+0	30.3999996E+0
334.0984532E-3	-1.1496323E+0	3.0913985E+0	30.5000000E+0
333.9680543E-3	-1.1020726E+0	3.0901944E+0	30.6000004E+0
333.8322024E-3	-1.0825407E+0	3.0889400E+0	30.7000008E+0
333.6967086E-3	-1.1203640E+0	3.0876889E+0	30.8000011E+0
333.5372700E-3	-1.1384354E+0	3.0862167E+0	30.8999996E+0
333.3634742E-3	-1.1052498E+0	3.0846120E+0	31.0000000E+0
333.2290513E-3	-1.1115300E+0	3.0833707E+0	31.1000004E+0
333.0747752E-3	-1.1816327E+0	3.0819462E+0	31.2000008E+0
332.9146244E-3	-1.1097157E+0	3.0804674E+0	31.3000011E+0
332.7543970E-3	-1.1189515E+0	3.0789880E+0	31.3999996E+0
332.5818057E-3	-1.1198248E+0	3.0773943E+0	31.5000000E+0
332.3974375E-3	-1.1032468E+0	3.0756919E+0	31.6000004E+0
332.2326342E-3	-1.0715611E+0	3.0741702E+0	31.7000008E+0
332.0777419E-3	-1.0796419E+0	3.0727400E+0	31.8000011E+0
331.9191815E-3	-1.1238404E+0	3.0712759E+0	31.8999996E+0
331.7460662E-3	-1.0881991E+0	3.0696774E+0	32.0000000E+0
331.5769764E-3	-1.1124297E+0	3.0681161E+0	32.1000023E+0
331.4030683E-3	-1.1023442E+0	3.0665103E+0	32.2000008E+0
331.1980746E-3	-1.0583187E+0	3.0646175E+0	32.2999992E+0
331.0472512E-3	-1.1017481E+0	3.0632248E+0	32.4000015E+0
330.8787257E-3	-1.0802057E+0	3.0616688E+0	32.5000000E+0
330.7191083E-3	-1.1656232E+0	3.0601949E+0	32.6000023E+0
330.5411132E-3	-1.0771283E+0	3.0585514E+0	32.7000008E+0
330.3806489E-3	-1.1076944E+0	3.0570697E+0	32.7999992E+0
330.2084760E-3	-1.0982805E+0	3.0554799E+0	32.9000015E+0
330.0264893E-3	-1.1520713E+0	3.0537995E+0	33.0000000E+0
329.8596956E-3	-1.1104495E+0	3.0522594E+0	33.1000023E+0
329.6872975E-3	-1.1578577E+0	3.0506676E+0	33.2000008E+0
329.4956557E-3	-1.1482379E+0	3.0488980E+0	33.2999992E+0
329.3120842E-3	-1.1016637E+0	3.0472030E+0	33.4000015E+0
329.1216608E-3	-1.0467346E+0	3.0454447E+0	33.5000000E+0
328.9659942E-3	-1.1060971E+0	3.0440073E+0	33.6000023E+0
328.8083014E-3	-1.1249617E+0	3.0425513E+0	33.7000008E+0
328.6255550E-3	-1.1487855E+0	3.0408639E+0	33.7999992E+0
328.4498866E-3	-1.0694348E+0	3.0392418E+0	33.9000015E+0
328.2715305E-3	-1.0996123E+0	3.0375949E+0	34.0000000E+0
328.1189611E-3	-1.1049906E+0	3.0361862E+0	34.1000023E+0
327.9398693E-3	-1.1102325E+0	3.0345325E+0	34.2000008E+0
327.7398456E-3	-1.0619958E+0	3.0326856E+0	34.2999992E+0
327.5747792E-3	-1.1243250E+0	3.0311614E+0	34.4000015E+0
327.3915551E-3	-1.1210164E+0	3.0294696E+0	34.5000000E+0
327.2338807E-3	-1.1704134E+0	3.0280137E+0	34.6000023E+0
327.0462942E-3	-1.0789100E+0	3.0262816E+0	34.7000008E+0
326.8755698E-3	-1.1335542E+0	3.0247052E+0	34.7999992E+0
326.7023544E-3	-1.1820010E+0	3.0231058E+0	34.9000015E+0
326.5214694E-3	-1.1152065E+0	3.0214355E+0	35.0000000E+0
326.2995662E-3	-1.0625684E+0	3.0193866E+0	35.1000023E+0
326.1435002E-3	-1.0447516E+0	3.0179455E+0	35.2000008E+0
325.9755277E-3	-1.1147714E+0	3.0163945E+0	35.2999992E+0
325.8134177E-3	-1.1807051E+0	3.0148977E+0	35.4000015E+0
325.6319243E-3	-1.1870023E+0	3.0132218E+0	35.5000000E+0
325.4373993E-3	-1.1206482E+0	3.0114257E+0	35.6000023E+0
325.2680370E-3	-1.1096556E+0	3.0098618E+0	35.7000008E+0
325.0959746E-3	-1.1178044E+0	3.0082731E+0	35.7999992E+0
324.9269341E-3	-1.1315092E+0	3.0067122E+0	35.9000015E+0
324.7352643E-3	-1.1391966E+0	3.0049424E+0	36.0000000E+0
324.5432398E-3	-1.1316802E+0	3.0031693E+0	36.1000023E+0
324.3785115E-3	-1.1492460E+0	3.0016483E+0	36.2000008E+0
324.1780028E-3	-1.1216340E+0	2.9997969E+0	36.2999992E+0
324.0022260E-3	-1.1919100E+0	2.9981738E+0	36.4000015E+0
323.8378758E-3	-1.1842391E+0	2.9966563E+0	36.5000000E+0
323.6646728E-3	-1.1720661E+0	2.9950570E+0	36.6000023E+0
323.4873966E-3	-1.1834964E+0	2.9934201E+0	36.7000008E+0
323.2977944E-3	-1.1741818E+0	2.9916694E+0	36.7999992E+0
323.1084732E-3	-1.1268448E+0	2.9899213E+0	36.9000015E+0
322.9291368E-3	-1.1314520E+0	2.9882653E+0	37.0000000E+0
322.7554505E-3	-1.1932714E+0	2.9866616E+0	37.1000023E+0
322.5934337E-3	-1.1620345E+0	2.9851656E+0	37.2000008E+0
322.4067795E-3	-1.1710159E+0	2.9834421E+0	37.2999992E+0
322.2055318E-3	-1.1398747E+0	2.9815839E+0	37.4000015E+0
322.0540450E-3	-1.2233488E+0	2.9801851E+0	37.5000000E+0
321.8488678E-3	-1.2170485E+0	2.9782906E+0	37.6000023E+0
321.6789702E-3	-1.1994911E+0	2.9767218E+0	37.7000008E+0
321.4991371E-3	-1.1942092E+0	2.9750613E+0	37.7999992E+0
321.3387544E-3	-1.2057423E+0	2.9735804E+0	37.9000015E+0
321.1546136E-3	-1.1979080E+0	2.9718801E+0	38.0000000E+0
320.9470364E-3	-1.2358798E+0	2.9699634E+0	38.1000023E+0
320.7801276E-3	-1.2373868E+0	2.9684222E+0	38.2000008E+0
320.5683968E-3	-1.2265895E+0	2.9664672E+0	38.2999992E+0
320.3770567E-3	-1.1885777E+0	2.9647004E+0	38.4000015E+0
320.2391110E-3	-1.2735731E+0	2.9634267E+0	38.5000000E+0
320.0469647E-3	-1.2519592E+0	2.9616525E+0	38.6000023E+0
319.8722225E-3	-1.2626707E+0	2.9600390E+0	38.7000008E+0
319.6780054E-3	-1.2683780E+0	2.9582457E+0	38.7999992E+0
319.4964081E-3	-1.2709375E+0	2.9565689E+0	38.9000015E+0
319.3246267E-3	-1.3159712E+0	2.9549827E+0	39.0000000E+0
319.1554806E-3	-1.3487326E+0	2.9534209E+0	39.1000023E+0
318.9548026E-3	-1.3744350E+0	2.9515679E+0	39.2000008E+0
318.7830074E-3	-1.3559413E+0	2.9499816E+0	39.2999992E+0
318.6040485E-3	-1.4333752E+0	2.9483292E+0	39.4000015E+0
318.4278137E-3	-1.4482685E+0	2.9467019E+0	39.5000000E+0
318.2532268E-3	-1.4473137E+0	2.9450898E+0	39.6000023E+0
318.0773232E-3	-1.4234814E+0	2.9434656E+0	39.7000008E+0
317.8951444E-3	-1.4391074E+0	2.9417834E+0	39.7999992E+0
317.7407554E-3	-1.4781909E+0	2.9403579E+0	39.9000015E+0
317.5560911E-3	-1.4738823E+0	2.9386527E+0	40.0000000E+0
317.3529088E-3	-1.4914636E+0	2.9367766E+0	40.1000023E+0
317.1954596E-3	-1.6049483E+0	2.9353228E+0	40.2000008E+0
317.0137366E-3	-1.6619259E+0	2.9336448E+0	40.2999992E+0
316.8301175E-3	-1.6411966E+0	2.9319494E+0	40.4000015E+0
316.6478867E-3	-1.6776710E+0	2.9302667E+0	40.5000000E+0
316.4735384E-3	-1.7577190E+0	2.9286569E+0	40.6000023E+0
316.3088552E-3	-1.8831108E+0	2.9271362E+0	40.7000008E+0
316.1356281E-3	-1.9060074E+0	2.9255367E+0	40.7999992E+0
315.9372686E-3	-1.9096638E+0	2.9237052E+0	40.9000015E+0
315.7839673E-3	-2.0361766E+0	2.9222896E+0	41.0000000E+0
315.6185445E-3	-2.0848666E+0	2.9207622E+0	41.1000023E+0
315.4309904E-3	-2.1865541E+0	2.9190304E+0	41.2000008E+0
315.2474188E-3	-2.1618985E+0	2.9173354E+0	41.2999992E+0
315.0785508E-3	-2.3060495E+0	2.9157761E+0	41.4000015E+0
314.9125370E-3	-2.4100665E+0	2.9142432E+0	41.5000000E+0
314.7359122E-3	-2.5022161E+0	2.9126123E+0	41.6000023E+0
314.5615041E-3	-2.5587780E+0	2.9110019E+0	41.7000008E+0
314.4145927E-3	-2.6208380E+0	2.9096454E+0	41.7999992E+0
314.2307434E-3	-2.7018798E+0	2.9079478E+0	41.9000015E+0
314.0353269E-3	-2.7668877E+0	2.9061434E+0	42.0000000E+0
313.8666142E-3	-2.8030647E+0	2.9045855E+0	42.1000023E+0
313.6832180E-3	-2.8310206E+0	2.9028921E+0	42.2000008E+0
313.4767302E-3	-2.7990385E+0	2.9009855E+0	42.2999992E+0
313.3009366E-3	-2.7781369E+0	2.8993623E+0	42.4000015E+0
313.0892003E-3	-2.6521680E+0	2.8974072E+0	42.5000000E+0
312.8864112E-3	-2.5582774E+0	2.8955347E+0	42.6000023E+0
312.6847769E-3	-2.3730639E+0	2.8936729E+0	42.7000008E+0
312.4329894E-3	-2.0314667E+0	2.8913480E+0	42.7999992E+0
312.2252033E-3	-1.8258219E+0	2.8894294E+0	42.9000015E+0
312.0269845E-3	-1.5757727E+0	2.8875991E+0	43.0000000E+0
311.7698179E-3	-1.2162562E+0	2.8852245E+0	43.1000023E+0
311.5547553E-3	-922.9078894E-3	2.8832387E+0	43.2000008E+0
311.3216121E-3	-631.8282699E-3	2.8810860E+0	43.2999992E+0
311.1288000E-3	-458.7534639E-3	2.8793056E+0	43.4000015E+0
310.9193552E-3	-379.5483045E-3	2.8773717E+0	43.5000000E+0
310.7165784E-3	-238.2464810E-3	2.8754993E+0	43.6000023E+0
310.5194463E-3	-213.8266565E-3	2.8736791E+0	43.7000008E+0
310.3468571E-3	-218.0450592E-3	2.8720855E+0	43.7999992E+0
310.1467960E-3	-172.3707392E-3	2.8702382E+0	43.9000015E+0
309.9727717E-3	-198.5475333E-3	2.8686313E+0	44.0000000E+0
309.7866968E-3	-218.0011876E-3	2.8669132E+0	44.1000023E+0
309.6008264E-3	-263.8255171E-3	2.8651969E+0	44.2000008E+0
309.4250351E-3	-320.9025758E-3	2.8635737E+0	44.2999992E+0
309.2076715E-3	-318.3363513E-3	2.8615667E+0	44.4000015E+0
309.0148046E-3	-307.6565943E-3	2.8597858E+0	44.5000000E+0
308.8435763E-3	-278.9253418E-3	2.8582048E+0	44.6000023E+0
308.6590556E-3	-351.2402933E-3	2.8565010E+0	44.7000008E+0
308.4813923E-3	-301.1908914E-3	2.8548605E+0	44.7999992E+0
308.2731883E-3	-309.1492974E-3	2.8529380E+0	44.9000015E+0
308.0804727E-3	-305.1915660E-3	2.8511586E+0	45.0000000E+0
307.9141930E-3	-285.0724557E-3	2.8496232E+0	45.1000023E+0
307.6968081E-3	-310.3566053E-3	2.8476160E+0	45.2000008E+0
307.5117053E-3	-292.7743635E-3	2.8459068E+0	45.2999992E+0
307.3107190E-3	-291.3486208E-3	2.8440510E+0	45.4000015E+0
307.1603635E-3	-357.0239355E-3	2.8426626E+0	45.5000000E+0
306.9878920E-3	-390.1220993E-3	2.8410701E+0	45.6000023E+0
306.7836954E-3	-343.8961004E-3	2.8391846E+0	45.7000008E+0
306.6132509E-3	-390.8138470E-3	2.8376108E+0	45.7999992E+0
306.4148244E-3	-439.8284821E-3	2.8357786E+0	45.9000015E+0
306.2314567E-3	-484.5415621E-3	2.8340855E+0	46.0000000E+0
306.0383602E-3	-448.9402089E-3	2.8323025E+0	46.1000023E+0
305.8387912E-3	-473.1413458E-3	2.8304598E+0	46.2000008E+0
305.6573626E-3	-492.6105369E-3	2.8287845E+0	46.2999992E+0
305.4617141E-3	-559.0803382E-3	2.8269780E+0	46.4000015E+0
305.2752566E-3	-647.4123641E-3	2.8252563E+0	46.5000000E+0
305.0960402E-3	-635.1540642E-3	2.8236015E+0	46.6000023E+0
304.9066587E-3	-631.9655383E-3	2.8218528E+0	46.7000008E+0
304.7322316E-3	-699.9966537E-3	2.8202422E+0	46.7999992E+0
304.5538644E-3	-736.8731934E-3	2.8185952E+0	46.9000015E+0
304.3442370E-3	-686.5272234E-3	2.8166596E+0	47.0000000E+0
304.1514868E-3	-714.5220567E-3	2.8148798E+0	47.1000023E+0
303.9924376E-3	-758.5438633E-3	2.8134112E+0	47.2000008E+0
303.7900757E-3	-760.9351798E-3	2.8115427E+0	47.2999992E+0
303.5885802E-3	-724.3365910E-3	2.8096822E+0	47.4000015E+0
303.4153832E-3	-789.1061024E-3	2.8080829E+0	47.5000000E+0
303.2207097E-3	-813.4487117E-3	2.8062854E+0	47.6000023E+0
303.0375191E-3	-850.0203887E-3	2.8045939E+0	47.7000008E+0
302.8351619E-3	-870.9461850E-3	2.8027254E+0	47.7999992E+0
302.6135402E-3	-829.4452508E-3	2.8006790E+0	47.9000015E+0
302.4311787E-3	-763.1594576E-3	2.7989952E+0	48.0000000E+0
302.2269254E-3	-836.7571886E-3	2.7971092E+0	48.1000023E+0
302.0453434E-3	-818.8771751E-3	2.7954325E+0	48.2000008E+0
301.8717396E-3	-921.6052400E-3	2.7938295E+0	48.2999992E+0
301.6674690E-3	-907.6677116E-3	2.7919434E+0	48.4000015E+0
301.4834645E-3	-882.0436329E-3	2.7902444E+0	48.5000000E+0
301.2916590E-3	-856.6576836E-3	2.7884733E+0	48.6000023E+0
301.0977357E-3	-862.4347644E-3	2.7866827E+0	48.7000008E+0
300.9095722E-3	-887.0201803E-3	2.7849453E+0	48.7999992E+0
300.7314473E-3	-981.4916835E-3	2.7833005E+0	48.9000015E+0
300.5318017E-3	-964.1213857E-3	2.7814571E+0	49.0000000E+0
300.3203531E-3	-920.0765575E-3	2.7795046E+0	49.1000023E+0
300.1479639E-3	-972.4388581E-3	2.7779129E+0	49.2000008E+0
299.9737195E-3	-1.0053688E+0	2.7763040E+0	49.2999992E+0
299.7670702E-3	-949.3375399E-3	2.7743958E+0	49.4000015E+0
299.5896639E-3	-993.7156223E-3	2.7727577E+0	49.5000000E+0
299.3723461E-3	-1.0157544E+0	2.7707511E+0	49.6000023E+0
299.1878846E-3	-973.0800906E-3	2.7690479E+0	49.7000008E+0
299.0211020E-3	-978.1255443E-3	2.7675079E+0	49.7999992E+0
298.8064490E-3	-1.0623571E+0	2.7655258E+0	49.9000015E+0
298.5929049E-3	-978.9807083E-3	2.7635541E+0	50.0000000E+0
298.4003279E-3	-988.1987845E-3	2.7617759E+0	50.1000023E+0
298.2732836E-3	-1.0152291E+0	2.7606028E+0	50.2000008E+0
297.9216563E-3	-974.6948450E-3	2.7573560E+0	50.2999992E+0
297.8223545E-3	-878.4821544E-3	2.7564391E+0	50.4000015E+0
297.6793005E-3	-962.1094757E-3	2.7551182E+0	50.5000000E+0
297.4469679E-3	-1.0123939E+0	2.7529729E+0	50.6000023E+0
297.2581244E-3	-1.0178326E+0	2.7512292E+0	50.7000008E+0
297.0737635E-3	-1.0503069E+0	2.7495269E+0	50.7999992E+0
296.8652097E-3	-1.0677290E+0	2.7476012E+0	50.9000015E+0
296.6803315E-3	-1.0114431E+0	2.7458941E+0	51.0000000E+0
296.4874774E-3	-1.0405473E+0	2.7441134E+0	51.1000023E+0
296.2838861E-3	-993.5851370E-3	2.7422335E+0	51.2000008E+0
296.1111670E-3	-1.0428969E+0	2.7406387E+0	51.2999992E+0
295.8954764E-3	-1.0341529E+0	2.7386471E+0	51.4000015E+0
295.7084758E-3	-1.0134154E+0	2.7369204E+0	51.5000000E+0
295.4815968E-3	-1.0415737E+0	2.7348255E+0	51.6000023E+0
295.3111836E-3	-1.0337284E+0	2.7332519E+0	51.7000008E+0
295.1174446E-3	-1.0059013E+0	2.7314630E+0	51.7999992E+0
294.9177058E-3	-1.0433116E+0	2.7296187E+0	51.9000015E+0
294.7252926E-3	-1.0500202E+0	2.7278420E+0	52.0000000E+0
294.5462957E-3	-1.0632415E+0	2.7261892E+0	52.1000023E+0
294.3291952E-3	-1.0529185E+0	2.7241846E+0	52.2000008E+0
294.1233526E-3	-996.6147605E-3	2.7222840E+0	52.2999992E+0
293.9241216E-3	-1.0652676E+0	2.7204443E+0	52.4000015E+0
293.7404399E-3	-1.0686863E+0	2.7187483E+0	52.5000000E+0
293.5504015E-3	-1.1260391E+0	2.7169936E+0	52.6000023E+0
293.3522062E-3	-1.0579589E+0	2.7151635E+0	52.7000008E+0
293.1588052E-3	-1.0724436E+0	2.7133777E+0	52.7999992E+0
292.9667528E-3	-1.0542708E+0	2.7116044E+0	52.9000015E+0
292.7694949E-3	-1.0703079E+0	2.7097830E+0	53.0000000E+0
292.5437466E-3	-1.0988460E+0	2.7076985E+0	53.1000023E+0
292.3745043E-3	-1.0960266E+0	2.7061358E+0	53.2000008E+0
292.1605105E-3	-1.0697178E+0	2.7041598E+0	53.2999992E+0
291.9503847E-3	-1.0688921E+0	2.7022196E+0	53.4000015E+0
291.7744588E-3	-1.1217960E+0	2.7005952E+0	53.5000000E+0
291.5692139E-3	-1.0661605E+0	2.6987000E+0	53.6000023E+0
291.3699521E-3	-1.0570233E+0	2.6968601E+0	53.7000008E+0
291.1573180E-3	-1.0819060E+0	2.6948968E+0	53.7999992E+0
290.9720526E-3	-1.0590869E+0	2.6931861E+0	53.9000015E+0
290.7562343E-3	-1.0090956E+0	2.6911933E+0	54.0000000E+0
290.5824463E-3	-1.1247582E+0	2.6895886E+0	54.1000023E+0
290.3725350E-3	-1.0908302E+0	2.6876504E+0	54.2000008E+0
290.1798178E-3	-1.0550185E+0	2.6858709E+0	54.2999992E+0
289.9681927E-3	-1.0498671E+0	2.6839168E+0	54.4000015E+0
289.7597870E-3	-1.0618455E+0	2.6819925E+0	54.5000000E+0
289.5764539E-3	-1.0633512E+0	2.6802997E+0	54.6000023E+0
289.3968645E-3	-1.1090334E+0	2.6786414E+0	54.7000008E+0
289.1900346E-3	-1.0991527E+0	2.6767316E+0	54.7999992E+0
289.0089792E-3	-1.1034079E+0	2.6750598E+0	54.9000015E+0
288.8287249E-3	-1.1557484E+0	2.6733954E+0	55.0000000E+0
288.6149517E-3	-1.0714824E+0	2.6714215E+0	55.1000023E+0
288.4006154E-3	-1.0609201E+0	2.6694424E+0	55.2000008E+0
288.2033424E-3	-1.0538584E+0	2.6676209E+0	55.2999992E+0
288.0227149E-3	-1.0439380E+0	2.6659530E+0	55.4000015E+0
287.8355278E-3	-1.0638605E+0	2.6642246E+0	55.5000000E+0
287.6387040E-3	-1.0888742E+0	2.6624072E+0	55.6000023E+0
287.4301190E-3	-1.1167508E+0	2.6604812E+0	55.7000008E+0
287.2511948E-3	-1.0781687E+0	2.6588291E+0	55.7999992E+0
287.0209091E-3	-1.1057819E+0	2.6567028E+0	55.9000015E+0
286.8413799E-3	-1.1178992E+0	2.6550451E+0	56.0000000E+0
286.6511526E-3	-1.0826573E+0	2.6532886E+0	56.1000023E+0
286.4487473E-3	-1.0802320E+0	2.6514196E+0	56.2000008E+0
286.2401310E-3	-1.0929586E+0	2.6494934E+0	56.2999992E+0
286.0380984E-3	-1.1108600E+0	2.6476279E+0	56.4000015E+0
285.8341758E-3	-1.1086638E+0	2.6457449E+0	56.5000000E+0
285.6394782E-3	-1.0583417E+0	2.6439472E+0	56.6000023E+0
285.4377501E-3	-1.0899549E+0	2.6420845E+0	56.7000008E+0
285.2469742E-3	-1.0878725E+0	2.6403229E+0	56.7999992E+0
285.0462348E-3	-1.1417778E+0	2.6384694E+0	56.9000015E+0
284.8403804E-3	-1.1040855E+0	2.6365686E+0	57.0000000E+0
284.6233157E-3	-1.0798215E+0	2.6345643E+0	57.1000023E+0
284.4516243E-3	-1.1167872E+0	2.6329790E+0	57.2000008E+0
284.2459756E-3	-1.1313285E+0	2.6310801E+0	57.2999992E+0
284.0410128E-3	-1.1494932E+0	2.6291876E+0	57.4000015E+0
283.8285653E-3	-1.1050705E+0	2.6272259E+0	57.5000000E+0
283.6338649E-3	-1.1116963E+0	2.6254281E+0	57.6000023E+0
283.4042569E-3	-1.0736545E+0	2.6233080E+0	57.7000008E+0
283.2140994E-3	-1.1270752E+0	2.6215522E+0	57.7999992E+0
283.0309535E-3	-1.1436754E+0	2.6198611E+0	57.9000015E+0
282.8459965E-3	-1.1354152E+0	2.6181532E+0	58.0000000E+0
282.6313088E-3	-1.0813155E+0	2.6161709E+0	58.1000023E+0
282.4396799E-3	-1.1161056E+0	2.6144015E+0	58.2000008E+0
282.2406818E-3	-1.1121043E+0	2.6125640E+0	58.2999992E+0
282.0515126E-3	-1.1257225E+0	2.6108173E+0	58.4000015E+0
281.8413265E-3	-1.1263668E+0	2.6088765E+0	58.5000000E+0
281.6180066E-3	-1.0651927E+0	2.6068145E+0	58.6000023E+0
281.4190912E-3	-1.0812945E+0	2.6049778E+0	58.7000008E+0
281.2477311E-3	-1.0835049E+0	2.6033955E+0	58.7999992E+0
281.0339227E-3	-1.0542425E+0	2.6014213E+0	58.9000015E+0
280.8185350E-3	-1.1951726E+0	2.5994325E+0	59.0000000E+0
280.6117963E-3	-1.1028165E+0	2.5975235E+0	59.1000023E+0
280.4098285E-3	-1.1297541E+0	2.5956586E+0	59.2000008E+0
280.2100830E-3	-1.1210798E+0	2.5938142E+0	59.2999992E+0
280.0252287E-3	-1.0945481E+0	2.5921074E+0	59.4000015E+0
279.8270228E-3	-1.1037570E+0	2.5902772E+0	59.5000000E+0
279.6215791E-3	-1.0949171E+0	2.5883802E+0	59.6000023E+0
279.4223173E-3	-1.0994758E+0	2.5865403E+0	59.7000008E+0
279.2241712E-3	-1.0802756E+0	2.5847107E+0	59.7999992E+0
279.0182465E-3	-1.1364761E+0	2.5828093E+0	59.9000015E+0
278.8147853E-3	-1.1370822E+0	2.5809306E+0	60.0000000E+0
278.6242312E-3	-1.0774049E+0	2.5791711E+0	60.1000023E+0
