Magnetic Field (T)	Diode Voltage (V)	Hall probe (V)	Acquisition Time 		
Tesla	Volts	Volts	Seconds		
NaN	NaN	NaN	0.0000000E+0
NaN	NaN	NaN	100.0000015E-3
277.7686396E-3	-784.1470666E-3	2.5712709E+0	200.0000030E-3
277.8057098E-3	-788.0853300E-3	2.5716132E+0	300.0000119E-3
277.8932449E-3	-833.0141264E-3	2.5724215E+0	400.0000060E-3
278.0337888E-3	-849.9132501E-3	2.5737192E+0	500.0000000E-3
278.1873655E-3	-781.8933593E-3	2.5751373E+0	600.0000238E-3
278.3295270E-3	-762.9358219E-3	2.5764499E+0	699.9999881E-3
278.5168911E-3	-775.7450086E-3	2.5781800E+0	800.0000119E-3
278.6693957E-3	-761.3018901E-3	2.5795881E+0	900.0000358E-3
278.8748930E-3	-782.6404511E-3	2.5814856E+0	1.0000000E+0
279.0190207E-3	-743.0967898E-3	2.5828164E+0	1.1000000E+0
279.2108676E-3	-792.5999087E-3	2.5845879E+0	1.2000000E+0
279.3568908E-3	-736.5303447E-3	2.5859362E+0	1.3000001E+0
279.5314212E-3	-721.0344838E-3	2.5875477E+0	1.4000000E+0
279.7096834E-3	-763.6036881E-3	2.5891938E+0	1.5000000E+0
279.8830820E-3	-783.4275199E-3	2.5907948E+0	1.6000000E+0
280.0537689E-3	-710.6593108E-3	2.5923709E+0	1.7000000E+0
280.2234218E-3	-681.4873768E-3	2.5939374E+0	1.8000001E+0
280.4007885E-3	-736.2523209E-3	2.5955751E+0	1.9000000E+0
280.5955475E-3	-683.9331903E-3	2.5973735E+0	2.0000000E+0
280.8127586E-3	-632.5123423E-3	2.5993791E+0	2.1000001E+0
280.9518836E-3	-655.0964809E-3	2.6006637E+0	2.2000000E+0
281.1553715E-3	-652.3928693E-3	2.6025427E+0	2.3000000E+0
281.3071399E-3	-618.2420395E-3	2.6039440E+0	2.4000001E+0
281.4997610E-3	-590.5187460E-3	2.6057226E+0	2.5000000E+0
281.6885063E-3	-641.9341093E-3	2.6074654E+0	2.6000001E+0
281.8776827E-3	-661.7789421E-3	2.6092122E+0	2.7000000E+0
282.0377134E-3	-645.7365505E-3	2.6106899E+0	2.8000000E+0
282.2172119E-3	-635.6616597E-3	2.6123473E+0	2.9000001E+0
282.3811794E-3	-543.7158445E-3	2.6138613E+0	3.0000000E+0
282.5353103E-3	-517.7110293E-3	2.6152845E+0	3.1000001E+0
282.7499857E-3	-568.8409628E-3	2.6172667E+0	3.2000000E+0
282.9154012E-3	-551.0014594E-3	2.6187941E+0	3.3000000E+0
283.0935064E-3	-522.3422946E-3	2.6204387E+0	3.4000001E+0
283.2881269E-3	-554.4790737E-3	2.6222357E+0	3.5000000E+0
283.4662701E-3	-472.8722664E-3	2.6238806E+0	3.6000001E+0
283.6446368E-3	-459.9479792E-3	2.6255276E+0	3.7000000E+0
283.8016078E-3	-465.9141594E-3	2.6269770E+0	3.8000000E+0
284.0004215E-3	-485.4549740E-3	2.6288128E+0	3.9000001E+0
284.1830473E-3	-333.7426636E-3	2.6304991E+0	4.0000000E+0
284.3565481E-3	-418.9059046E-3	2.6321011E+0	4.0999999E+0
284.5469966E-3	-399.3300958E-3	2.6338596E+0	4.2000003E+0
284.7319101E-3	-396.6831743E-3	2.6355670E+0	4.3000002E+0
284.9060159E-3	-344.0048381E-3	2.6371747E+0	4.4000001E+0
285.0932936E-3	-352.7124868E-3	2.6389039E+0	4.5000000E+0
285.2623660E-3	-276.2220862E-3	2.6404651E+0	4.5999999E+0
285.4436896E-3	-239.8430832E-3	2.6421393E+0	4.7000003E+0
285.6263785E-3	-214.8660608E-3	2.6438262E+0	4.8000002E+0
285.8075256E-3	-196.3413192E-3	2.6454989E+0	4.9000001E+0
285.9774538E-3	-114.9291874E-3	2.6470679E+0	5.0000000E+0
286.1735257E-3	-158.4232139E-3	2.6488784E+0	5.0999999E+0
286.3476327E-3	-117.2602332E-3	2.6504860E+0	5.2000003E+0
286.5081455E-3	-7.6785811E-3	2.6519681E+0	5.3000002E+0
286.6660048E-3	25.3251539E-3	2.6534257E+0	5.4000001E+0
286.8492993E-3	112.9432923E-3	2.6551182E+0	5.5000000E+0
287.0149070E-3	137.3573239E-3	2.6566473E+0	5.5999999E+0
287.2033623E-3	186.7840324E-3	2.6583875E+0	5.7000003E+0
287.3993939E-3	172.6327530E-3	2.6601975E+0	5.8000002E+0
287.5766014E-3	247.6480250E-3	2.6618338E+0	5.9000001E+0
287.7720185E-3	324.6832283E-3	2.6636382E+0	6.0000000E+0
287.9117949E-3	407.2231162E-3	2.6649289E+0	6.0999999E+0
288.0780903E-3	472.8472706E-3	2.6664644E+0	6.2000003E+0
288.2635054E-3	414.0937379E-3	2.6681764E+0	6.3000002E+0
288.4382738E-3	516.5125383E-3	2.6697902E+0	6.4000001E+0
288.6112870E-3	609.8717575E-3	2.6713877E+0	6.5000000E+0
288.7847314E-3	681.0831351E-3	2.6729892E+0	6.5999999E+0
288.9387371E-3	760.0861342E-3	2.6744112E+0	6.7000003E+0
289.0914892E-3	845.7093026E-3	2.6758217E+0	6.8000002E+0
289.2897063E-3	879.5937973E-3	2.6776520E+0	6.9000001E+0
289.4698478E-3	937.4107313E-3	2.6793153E+0	7.0000000E+0
289.6636510E-3	989.1220761E-3	2.6811048E+0	7.0999999E+0
289.8419785E-3	1.0788343E+0	2.6827514E+0	7.2000003E+0
289.9960055E-3	1.2068620E+0	2.6841736E+0	7.3000002E+0
290.1746090E-3	1.2735110E+0	2.6858228E+0	7.4000001E+0
290.3651229E-3	1.3506500E+0	2.6875819E+0	7.5000000E+0
290.5396494E-3	1.4222286E+0	2.6891934E+0	7.5999999E+0
290.7086788E-3	1.4651920E+0	2.6907542E+0	7.7000003E+0
290.8741407E-3	1.5549205E+0	2.6922820E+0	7.8000002E+0
291.0742287E-3	1.5515125E+0	2.6941295E+0	7.9000001E+0
291.2648733E-3	1.6178152E+0	2.6958899E+0	8.0000000E+0
291.4452467E-3	1.6645696E+0	2.6975554E+0	8.1000004E+0
291.6263635E-3	1.6397832E+0	2.6992277E+0	8.1999998E+0
291.8183517E-3	1.5911710E+0	2.7010005E+0	8.3000002E+0
291.9964161E-3	1.5789771E+0	2.7026447E+0	8.4000006E+0
292.1799028E-3	1.6024156E+0	2.7043389E+0	8.5000000E+0
292.4041288E-3	1.4583119E+0	2.7064093E+0	8.6000004E+0
292.6013711E-3	1.3155677E+0	2.7082306E+0	8.6999998E+0
292.8080243E-3	1.1710548E+0	2.7101387E+0	8.8000002E+0
293.0280884E-3	919.5847892E-3	2.7121707E+0	8.9000006E+0
293.2570746E-3	677.1639364E-3	2.7142851E+0	9.0000000E+0
293.4634921E-3	395.8671893E-3	2.7161911E+0	9.1000004E+0
293.6916477E-3	126.2302620E-3	2.7182978E+0	9.1999998E+0
293.9244719E-3	-226.8975643E-3	2.7204476E+0	9.3000002E+0
294.1732287E-3	-603.5271193E-3	2.7227445E+0	9.4000006E+0
294.4190660E-3	-995.7343155E-3	2.7250145E+0	9.5000000E+0
294.6459668E-3	-1.4236923E+0	2.7271096E+0	9.6000004E+0
294.9203650E-3	-1.8670611E+0	2.7296433E+0	9.6999998E+0
295.1660755E-3	-2.2924815E+0	2.7319121E+0	9.8000002E+0
295.3898088E-3	-2.6907279E+0	2.7339779E+0	9.9000006E+0
295.6343199E-3	-3.0766865E+0	2.7362356E+0	10.0000000E+0
295.8442440E-3	-3.4203563E+0	2.7381740E+0	10.1000004E+0
296.0828580E-3	-3.7398686E+0	2.7403773E+0	10.1999998E+0
296.3274238E-3	-4.0615734E+0	2.7426355E+0	10.3000002E+0
296.5505152E-3	-4.3535005E+0	2.7446954E+0	10.4000006E+0
296.7618426E-3	-4.5249961E+0	2.7466467E+0	10.5000000E+0
296.9723427E-3	-4.6554193E+0	2.7485904E+0	10.6000004E+0
297.1577489E-3	-4.7092267E+0	2.7503024E+0	10.6999998E+0
297.3667506E-3	-4.8151616E+0	2.7522322E+0	10.8000002E+0
297.5344589E-3	-4.8247210E+0	2.7537808E+0	10.9000006E+0
297.7374423E-3	-4.8605868E+0	2.7556551E+0	11.0000000E+0
297.8437250E-3	-4.7220294E+0	2.7566364E+0	11.1000004E+0
298.0645779E-3	-4.6699301E+0	2.7586757E+0	11.1999998E+0
298.2592403E-3	-4.5578683E+0	2.7604731E+0	11.3000002E+0
298.3788188E-3	-4.4262307E+0	2.7615773E+0	11.4000006E+0
298.5405523E-3	-4.2958224E+0	2.7630707E+0	11.5000000E+0
298.7308260E-3	-4.1781236E+0	2.7648276E+0	11.6000004E+0
298.8764514E-3	-3.9989448E+0	2.7661722E+0	11.6999998E+0
299.0754210E-3	-3.8662147E+0	2.7680094E+0	11.8000002E+0
299.2288591E-3	-3.7097322E+0	2.7694262E+0	11.9000006E+0
299.4127497E-3	-3.4899988E+0	2.7711242E+0	12.0000000E+0
299.5584913E-3	-3.4326402E+0	2.7724699E+0	12.1000004E+0
299.7661054E-3	-3.2651099E+0	2.7743869E+0	12.1999998E+0
299.9531702E-3	-3.1181664E+0	2.7761142E+0	12.3000002E+0
300.1050313E-3	-2.9926879E+0	2.7775164E+0	12.4000006E+0
300.2628520E-3	-2.8555822E+0	2.7789737E+0	12.5000000E+0
300.4428661E-3	-2.7670922E+0	2.7806359E+0	12.6000004E+0
300.6220076E-3	-2.6179293E+0	2.7822900E+0	12.6999998E+0
300.7952096E-3	-2.5465612E+0	2.7838893E+0	12.8000002E+0
300.9746248E-3	-2.3905703E+0	2.7855459E+0	12.9000006E+0
301.1582355E-3	-2.3798929E+0	2.7872413E+0	13.0000000E+0
301.3216449E-3	-2.2449958E+0	2.7887502E+0	13.1000004E+0
301.5223262E-3	-2.1660110E+0	2.7906032E+0	13.1999998E+0
301.6847351E-3	-1.9929441E+0	2.7921028E+0	13.3000002E+0
301.8408737E-3	-1.9783629E+0	2.7935445E+0	13.4000006E+0
302.0385981E-3	-1.9075534E+0	2.7953703E+0	13.5000000E+0
302.2197597E-3	-1.9309410E+0	2.7970430E+0	13.6000004E+0
302.4037089E-3	-1.8258050E+0	2.7987415E+0	13.6999998E+0
302.5654630E-3	-1.7093317E+0	2.8002351E+0	13.8000002E+0
302.7900773E-3	-1.7601906E+0	2.8023091E+0	13.9000006E+0
302.9648871E-3	-1.6899191E+0	2.8039232E+0	14.0000000E+0
303.1429169E-3	-1.6569278E+0	2.8055671E+0	14.1000004E+0
303.3299303E-3	-1.6093161E+0	2.8072939E+0	14.1999998E+0
303.5208268E-3	-1.5673153E+0	2.8090566E+0	14.3000002E+0
303.7089408E-3	-1.5412965E+0	2.8107935E+0	14.4000006E+0
303.9025915E-3	-1.5086326E+0	2.8125816E+0	14.5000000E+0
304.1043565E-3	-1.4549591E+0	2.8144447E+0	14.6000004E+0
304.2873695E-3	-1.4488246E+0	2.8161345E+0	14.6999998E+0
304.4578089E-3	-1.4209104E+0	2.8177083E+0	14.8000002E+0
304.6588717E-3	-1.3643160E+0	2.8195648E+0	14.9000006E+0
304.8271520E-3	-1.3188222E+0	2.8211187E+0	15.0000000E+0
305.0507797E-3	-1.3274351E+0	2.8231836E+0	15.1000004E+0
305.1810005E-3	-1.2630682E+0	2.8243860E+0	15.1999998E+0
305.3708870E-3	-1.2330588E+0	2.8261393E+0	15.3000002E+0
305.5801240E-3	-1.2481810E+0	2.8280713E+0	15.4000006E+0
305.7427798E-3	-1.2254052E+0	2.8295732E+0	15.5000000E+0
305.9321630E-3	-1.2291002E+0	2.8313219E+0	15.6000004E+0
306.1494729E-3	-1.2626773E+0	2.8333285E+0	15.6999998E+0
306.3205023E-3	-1.2330561E+0	2.8349077E+0	15.8000002E+0
306.5098151E-3	-1.1340518E+0	2.8366557E+0	15.9000006E+0
306.7055216E-3	-1.1967692E+0	2.8384628E+0	16.0000000E+0
306.8954797E-3	-1.1827181E+0	2.8402168E+0	16.1000004E+0
307.0941046E-3	-1.1793347E+0	2.8420508E+0	16.2000008E+0
307.3047270E-3	-1.1744053E+0	2.8439956E+0	16.3000011E+0
307.4815434E-3	-1.1329469E+0	2.8456283E+0	16.3999996E+0
307.6692020E-3	-1.2007312E+0	2.8473611E+0	16.5000000E+0
307.8364611E-3	-1.1405156E+0	2.8489055E+0	16.6000004E+0
308.0280129E-3	-1.1124699E+0	2.8506742E+0	16.7000008E+0
308.2005563E-3	-1.0926432E+0	2.8522674E+0	16.8000011E+0
308.4012889E-3	-1.1256694E+0	2.8541209E+0	16.8999996E+0
308.5929492E-3	-1.1701265E+0	2.8558906E+0	17.0000000E+0
308.7751280E-3	-1.1026579E+0	2.8575727E+0	17.1000004E+0
308.9488702E-3	-1.0524228E+0	2.8591770E+0	17.2000008E+0
309.1514660E-3	-1.0656569E+0	2.8610477E+0	17.3000011E+0
309.3535589E-3	-1.0670883E+0	2.8629137E+0	17.3999996E+0
309.5557134E-3	-1.1110192E+0	2.8647804E+0	17.5000000E+0
309.7271444E-3	-1.0646695E+0	2.8663633E+0	17.6000004E+0
309.9398645E-3	-1.0604030E+0	2.8683275E+0	17.7000008E+0
310.1270880E-3	-1.0832902E+0	2.8700562E+0	17.8000011E+0
310.3106942E-3	-1.0361140E+0	2.8717516E+0	17.8999996E+0
310.5146659E-3	-1.0563389E+0	2.8736350E+0	18.0000000E+0
310.6862405E-3	-1.0426269E+0	2.8752192E+0	18.1000004E+0
310.8712110E-3	-1.0035944E+0	2.8769272E+0	18.2000008E+0
311.0622639E-3	-1.0417179E+0	2.8786913E+0	18.3000011E+0
311.2751550E-3	-1.0520895E+0	2.8806570E+0	18.3999996E+0
311.4689024E-3	-1.0546412E+0	2.8824460E+0	18.5000000E+0
311.6752545E-3	-1.0662628E+0	2.8843514E+0	18.6000004E+0
311.8587199E-3	-1.0717258E+0	2.8860454E+0	18.7000008E+0
312.0408390E-3	-1.0221825E+0	2.8877270E+0	18.8000011E+0
312.2426247E-3	-1.0559454E+0	2.8895903E+0	18.8999996E+0
312.4285560E-3	-1.0296333E+0	2.8913071E+0	19.0000000E+0
312.5978921E-3	-981.5936106E-3	2.8928707E+0	19.1000004E+0
312.8110910E-3	-1.0740208E+0	2.8948393E+0	19.2000008E+0
312.9917107E-3	-1.0447675E+0	2.8965070E+0	19.3000011E+0
313.1886809E-3	-1.0230556E+0	2.8983258E+0	19.3999996E+0
313.3734334E-3	-1.0441195E+0	2.9000317E+0	19.5000000E+0
313.5798269E-3	-1.0413769E+0	2.9019375E+0	19.6000004E+0
313.7527277E-3	-983.6332209E-3	2.9035340E+0	19.7000008E+0
313.9552134E-3	-1.0148318E+0	2.9054036E+0	19.8000011E+0
314.1291713E-3	-1.0673689E+0	2.9070099E+0	19.8999996E+0
314.3139054E-3	-1.0350209E+0	2.9087157E+0	20.0000000E+0
314.5030187E-3	-994.3597330E-3	2.9104619E+0	20.1000004E+0
314.7171707E-3	-1.0215464E+0	2.9124392E+0	20.2000008E+0
314.9043718E-3	-1.0430533E+0	2.9141678E+0	20.3000011E+0
315.0872439E-3	-1.0449492E+0	2.9158564E+0	20.3999996E+0
315.2693088E-3	-1.0207708E+0	2.9175375E+0	20.5000000E+0
315.4358308E-3	-969.4349000E-3	2.9190751E+0	20.6000004E+0
315.6338895E-3	-961.6493111E-3	2.9209039E+0	20.7000008E+0
315.8320010E-3	-1.0006726E+0	2.9227332E+0	20.8000011E+0
316.0210171E-3	-998.3094690E-3	2.9244785E+0	20.8999996E+0
316.2229096E-3	-1.0491534E+0	2.9263427E+0	21.0000000E+0
316.4136525E-3	-1.0397033E+0	2.9281039E+0	21.1000004E+0
316.5984710E-3	-994.8986242E-3	2.9298104E+0	21.2000008E+0
316.7812692E-3	-949.3591983E-3	2.9314983E+0	21.3000011E+0
316.9790876E-3	-967.5306316E-3	2.9333249E+0	21.3999996E+0
317.1796800E-3	-1.0488382E+0	2.9351771E+0	21.5000000E+0
317.3779477E-3	-1.0457305E+0	2.9370078E+0	21.6000004E+0
317.5605229E-3	-1.0455842E+0	2.9386937E+0	21.7000008E+0
317.7457531E-3	-1.0313938E+0	2.9404040E+0	21.8000011E+0
317.9585285E-3	-1.0373431E+0	2.9423687E+0	21.8999996E+0
318.1248362E-3	-1.0106013E+0	2.9439043E+0	22.0000000E+0
318.3072860E-3	-958.8801990E-3	2.9455890E+0	22.1000004E+0
318.5118410E-3	-987.1603398E-3	2.9474778E+0	22.2000008E+0
318.7336710E-3	-952.8535374E-3	2.9495260E+0	22.3000011E+0
318.8930810E-3	-974.7329032E-3	2.9509980E+0	22.3999996E+0
319.0901607E-3	-982.4788632E-3	2.9528177E+0	22.5000000E+0
319.2804573E-3	-1.0134812E+0	2.9545749E+0	22.6000004E+0
319.4635406E-3	-972.6344415E-3	2.9562654E+0	22.7000008E+0
319.6561846E-3	-1.0373645E+0	2.9580442E+0	22.8000011E+0
319.8242168E-3	-975.0194331E-3	2.9595957E+0	22.8999996E+0
320.0190675E-3	-947.9693641E-3	2.9613949E+0	23.0000000E+0
320.2235018E-3	-954.4696381E-3	2.9632826E+0	23.1000004E+0
320.3990953E-3	-992.4868866E-3	2.9649039E+0	23.2000008E+0
320.5990302E-3	-977.2253635E-3	2.9667500E+0	23.3000011E+0
320.7869855E-3	-1.0065499E+0	2.9684856E+0	23.3999996E+0
320.9975387E-3	-972.6863963E-3	2.9704297E+0	23.5000000E+0
321.1891765E-3	-1.0233396E+0	2.9721992E+0	23.6000004E+0
321.3562814E-3	-995.4129152E-3	2.9737422E+0	23.7000008E+0
321.5608956E-3	-954.0161381E-3	2.9756315E+0	23.8000011E+0
321.7698203E-3	-986.6902608E-3	2.9775607E+0	23.8999996E+0
321.9365246E-3	-964.8013160E-3	2.9790999E+0	24.0000000E+0
322.1364796E-3	-951.7122252E-3	2.9809463E+0	24.1000004E+0
322.3230986E-3	-922.9267586E-3	2.9826694E+0	24.2000008E+0
322.5181672E-3	-969.4015901E-3	2.9844706E+0	24.3000011E+0
322.7280644E-3	-982.8012384E-3	2.9864087E+0	24.3999996E+0
322.9394840E-3	-1.0358635E+0	2.9883609E+0	24.5000000E+0
323.1199378E-3	-992.4494680E-3	2.9900271E+0	24.6000004E+0
323.3338417E-3	-1.0088731E+0	2.9920022E+0	24.7000008E+0
323.5181149E-3	-1.0359026E+0	2.9937037E+0	24.8000011E+0
323.7189431E-3	-1.0793341E+0	2.9955581E+0	24.8999996E+0
323.9041348E-3	-1.0570160E+0	2.9972681E+0	25.0000000E+0
324.0953515E-3	-993.8644092E-3	2.9990337E+0	25.1000004E+0
324.2767851E-3	-988.5556999E-3	3.0007090E+0	25.2000008E+0
324.4930526E-3	-1.0880301E+0	3.0027059E+0	25.3000011E+0
324.6736114E-3	-976.0511876E-3	3.0043731E+0	25.3999996E+0
324.8626684E-3	-985.0068902E-3	3.0061188E+0	25.5000000E+0
325.0594235E-3	-976.6070289E-3	3.0079356E+0	25.6000004E+0
325.2326712E-3	-955.1745090E-3	3.0095353E+0	25.7000008E+0
325.4528901E-3	-1.0352323E+0	3.0115687E+0	25.8000011E+0
325.6241077E-3	-975.5211946E-3	3.0131497E+0	25.8999996E+0
325.8066631E-3	-973.0455349E-3	3.0148353E+0	26.0000000E+0
326.0147923E-3	-977.1986898E-3	3.0167571E+0	26.1000004E+0
326.1683343E-3	-976.5817634E-3	3.0181748E+0	26.2000008E+0
326.3845616E-3	-958.3595891E-3	3.0201714E+0	26.3000011E+0
326.5882339E-3	-988.6872323E-3	3.0220520E+0	26.3999996E+0
326.7722502E-3	-1.0400596E+0	3.0237512E+0	26.5000000E+0
326.9585926E-3	-1.0468855E+0	3.0254718E+0	26.6000004E+0
327.1274885E-3	-995.4021910E-3	3.0270313E+0	26.7000008E+0
327.3156567E-3	-953.3611535E-3	3.0287688E+0	26.8000011E+0
327.5284628E-3	-953.6893731E-3	3.0307337E+0	26.8999996E+0
327.7089155E-3	-994.2858554E-3	3.0324000E+0	27.0000000E+0
327.8968819E-3	-1.0074477E+0	3.0341356E+0	27.1000004E+0
328.0912639E-3	-1.0506526E+0	3.0359304E+0	27.2000008E+0
328.2942312E-3	-995.0027967E-3	3.0378045E+0	27.3000011E+0
328.4955716E-3	-999.8538638E-3	3.0396636E+0	27.3999996E+0
328.6582157E-3	-1.0230429E+0	3.0411654E+0	27.5000000E+0
328.8614333E-3	-1.0462705E+0	3.0430419E+0	27.6000004E+0
329.0560929E-3	-1.0219143E+0	3.0448393E+0	27.7000008E+0
329.2552116E-3	-1.0249937E+0	3.0466779E+0	27.8000011E+0
329.4296739E-3	-986.4823284E-3	3.0482888E+0	27.8999996E+0
329.6458520E-3	-1.0346121E+0	3.0502849E+0	28.0000000E+0
329.8182713E-3	-955.9817469E-3	3.0518769E+0	28.1000004E+0
330.0118382E-3	-1.0013177E+0	3.0536642E+0	28.2000008E+0
330.1910546E-3	-953.4209438E-3	3.0553191E+0	28.3000011E+0
330.4006982E-3	-1.0100557E+0	3.0572548E+0	28.3999996E+0
330.5939998E-3	-938.7002256E-3	3.0590397E+0	28.5000000E+0
330.7511121E-3	-933.6185500E-3	3.0604904E+0	28.6000004E+0
330.9429210E-3	-995.6670456E-3	3.0622615E+0	28.7000008E+0
331.1710061E-3	-1.0210401E+0	3.0643676E+0	28.8000011E+0
331.3561430E-3	-998.2603462E-3	3.0660770E+0	28.8999996E+0
331.5569221E-3	-1.0230339E+0	3.0679310E+0	29.0000000E+0
331.7386926E-3	-984.2653592E-3	3.0696093E+0	29.1000004E+0
331.9316483E-3	-1.0050799E+0	3.0713910E+0	29.2000008E+0
332.1088893E-3	-1.0352851E+0	3.0730276E+0	29.3000011E+0
332.3023551E-3	-985.0783848E-3	3.0748140E+0	29.3999996E+0
332.5063914E-3	-966.3326682E-3	3.0766980E+0	29.5000000E+0
332.6923134E-3	-985.9343689E-3	3.0784147E+0	29.6000004E+0
332.8959153E-3	-1.0285311E+0	3.0802947E+0	29.7000008E+0
333.0710759E-3	-1.0297766E+0	3.0819121E+0	29.8000011E+0
333.2502487E-3	-1.0232862E+0	3.0835665E+0	29.8999996E+0
333.4636073E-3	-1.0074731E+0	3.0855365E+0	30.0000000E+0
333.6513363E-3	-1.0485226E+0	3.0872700E+0	30.1000004E+0
333.8564158E-3	-1.0750991E+0	3.0891636E+0	30.2000008E+0
334.0181320E-3	-1.0287589E+0	3.0906568E+0	30.3000011E+0
334.1543755E-3	-1.0044479E+0	3.0919148E+0	30.3999996E+0
334.1361374E-3	-971.0038407E-3	3.0917464E+0	30.5000000E+0
334.0505861E-3	-1.0192385E+0	3.0909565E+0	30.6000004E+0
333.8748585E-3	-971.4105856E-3	3.0893339E+0	30.7000008E+0
333.7437997E-3	-993.1908680E-3	3.0881237E+0	30.8000011E+0
333.5893093E-3	-960.3595918E-3	3.0866972E+0	30.8999996E+0
333.4417173E-3	-974.4738517E-3	3.0853344E+0	31.0000000E+0
333.2881261E-3	-1.0240770E+0	3.0839162E+0	31.1000004E+0
333.1309813E-3	-1.0089510E+0	3.0824652E+0	31.2000008E+0
332.9658513E-3	-1.0018486E+0	3.0809405E+0	31.3000011E+0
332.8118936E-3	-1.0498729E+0	3.0795189E+0	31.3999996E+0
332.6547958E-3	-1.0609006E+0	3.0780683E+0	31.5000000E+0
332.4835379E-3	-1.0287463E+0	3.0764870E+0	31.6000004E+0
332.3000060E-3	-951.9785860E-3	3.0747923E+0	31.7000008E+0
332.1330251E-3	-968.4264381E-3	3.0732505E+0	31.8000011E+0
331.9688492E-3	-1.0315774E+0	3.0717345E+0	31.8999996E+0
331.8125368E-3	-1.0203378E+0	3.0702912E+0	32.0000000E+0
331.6391092E-3	-987.4100805E-3	3.0686898E+0	32.1000023E+0
331.4421033E-3	-990.7410073E-3	3.0668708E+0	32.2000008E+0
331.2878651E-3	-996.2952223E-3	3.0654466E+0	32.2999992E+0
331.1024590E-3	-1.0246106E+0	3.0637346E+0	32.4000015E+0
330.9278258E-3	-1.0140857E+0	3.0621221E+0	32.5000000E+0
330.7536059E-3	-1.0078592E+0	3.0605134E+0	32.6000023E+0
330.6037487E-3	-1.0400928E+0	3.0591297E+0	32.7000008E+0
330.4209258E-3	-993.7130637E-3	3.0574416E+0	32.7999992E+0
330.2343794E-3	-989.1204240E-3	3.0557191E+0	32.9000015E+0
330.0676968E-3	-939.6917244E-3	3.0541800E+0	33.0000000E+0
329.9190134E-3	-1.0614048E+0	3.0528071E+0	33.1000023E+0
329.7491488E-3	-1.0566844E+0	3.0512387E+0	33.2000008E+0
329.5665559E-3	-991.2523942E-3	3.0495527E+0	33.2999992E+0
329.3805945E-3	-981.8782475E-3	3.0478356E+0	33.4000015E+0
329.2062339E-3	-918.6083204E-3	3.0462256E+0	33.5000000E+0
329.0617341E-3	-998.9721292E-3	3.0448914E+0	33.6000023E+0
328.8430588E-3	-999.7360578E-3	3.0428722E+0	33.7000008E+0
328.7023852E-3	-1.0315794E+0	3.0415733E+0	33.7999992E+0
328.5180851E-3	-983.8713450E-3	3.0398715E+0	33.9000015E+0
328.3288679E-3	-971.8494360E-3	3.0381244E+0	34.0000000E+0
328.1602798E-3	-976.4775960E-3	3.0365677E+0	34.1000023E+0
327.9769149E-3	-934.7677030E-3	3.0348746E+0	34.2000008E+0
327.8159412E-3	-1.0262196E+0	3.0333882E+0	34.2999992E+0
327.6240916E-3	-990.8353532E-3	3.0316167E+0	34.4000015E+0
327.4611352E-3	-1.0130441E+0	3.0301121E+0	34.5000000E+0
327.2885019E-3	-1.0071933E+0	3.0285180E+0	34.6000023E+0
327.1111934E-3	-995.5900266E-3	3.0268808E+0	34.7000008E+0
326.9223029E-3	-1.0310666E+0	3.0251367E+0	34.7999992E+0
326.7643878E-3	-1.0635115E+0	3.0236786E+0	34.9000015E+0
326.5702175E-3	-1.0362887E+0	3.0218857E+0	35.0000000E+0
326.4032853E-3	-987.4377034E-3	3.0203443E+0	35.1000023E+0
326.2261074E-3	-1.0227348E+0	3.0187083E+0	35.2000008E+0
325.9976653E-3	-985.8758734E-3	3.0165989E+0	35.2999992E+0
325.8639172E-3	-985.5957966E-3	3.0153640E+0	35.4000015E+0
325.7108629E-3	-1.0587174E+0	3.0139507E+0	35.5000000E+0
325.5128218E-3	-978.4921161E-3	3.0121221E+0	35.6000023E+0
325.3406690E-3	-1.0168572E+0	3.0105325E+0	35.7000008E+0
325.1695318E-3	-1.0137210E+0	3.0089523E+0	35.7999992E+0
324.9705817E-3	-998.8093425E-3	3.0071153E+0	35.9000015E+0
324.8077645E-3	-1.0106929E+0	3.0056119E+0	36.0000000E+0
324.6294157E-3	-977.1683072E-3	3.0039651E+0	36.1000023E+0
324.4654599E-3	-1.0116162E+0	3.0024512E+0	36.2000008E+0
324.2778588E-3	-991.8351002E-3	3.0007189E+0	36.2999992E+0
324.1088344E-3	-934.2617014E-3	2.9991582E+0	36.4000015E+0
323.9431005E-3	-951.2404491E-3	2.9976279E+0	36.5000000E+0
323.7339009E-3	-956.2820238E-3	2.9956962E+0	36.6000023E+0
323.5587012E-3	-1.0338347E+0	2.9940785E+0	36.7000008E+0
323.3945175E-3	-1.0658948E+0	2.9925625E+0	36.7999992E+0
323.1780573E-3	-1.0081352E+0	2.9905638E+0	36.9000015E+0
322.9999928E-3	-990.8241596E-3	2.9889196E+0	37.0000000E+0
322.8429447E-3	-1.0171394E+0	2.9874695E+0	37.1000023E+0
322.6300441E-3	-961.0204432E-3	2.9855036E+0	37.2000008E+0
322.4739273E-3	-950.1383712E-3	2.9840621E+0	37.2999992E+0
322.3015549E-3	-1.0035625E+0	2.9824705E+0	37.4000015E+0
322.1464045E-3	-1.0379300E+0	2.9810379E+0	37.5000000E+0
321.9481875E-3	-1.0331370E+0	2.9792076E+0	37.6000023E+0
321.7784798E-3	-1.0143016E+0	2.9776406E+0	37.7000008E+0
321.5926569E-3	-982.4606336E-3	2.9759248E+0	37.7999992E+0
321.3737028E-3	-1.0409445E+0	2.9739031E+0	37.9000015E+0
321.1984283E-3	-1.0162055E+0	2.9722847E+0	38.0000000E+0
321.0297441E-3	-1.0409491E+0	2.9707271E+0	38.1000023E+0
320.8468714E-3	-1.0218553E+0	2.9690385E+0	38.2000008E+0
320.6534766E-3	-1.0519137E+0	2.9672528E+0	38.2999992E+0
320.4632135E-3	-1.0345136E+0	2.9654960E+0	38.4000015E+0
320.3031532E-3	-1.0071674E+0	2.9640180E+0	38.5000000E+0
320.0892403E-3	-1.0311217E+0	2.9620428E+0	38.6000023E+0
319.9133653E-3	-971.8723751E-3	2.9604189E+0	38.7000008E+0
319.7702414E-3	-1.0225848E+0	2.9590973E+0	38.7999992E+0
319.5551175E-3	-994.1107403E-3	2.9571110E+0	38.9000015E+0
319.3963537E-3	-974.8913930E-3	2.9556450E+0	39.0000000E+0
319.2057415E-3	-1.0298162E+0	2.9538850E+0	39.1000023E+0
319.0215465E-3	-1.0298079E+0	2.9521842E+0	39.2000008E+0
318.8531925E-3	-1.0067643E+0	2.9506297E+0	39.2999992E+0
318.6615216E-3	-973.0913564E-3	2.9488598E+0	39.4000015E+0
318.4889118E-3	-977.7241486E-3	2.9472660E+0	39.5000000E+0
318.3015649E-3	-961.3290663E-3	2.9455361E+0	39.6000023E+0
318.1213519E-3	-1.0300588E+0	2.9438721E+0	39.7000008E+0
317.9392016E-3	-959.7881895E-3	2.9421902E+0	39.7999992E+0
317.7577897E-3	-1.0377325E+0	2.9405151E+0	39.9000015E+0
317.5777683E-3	-989.8197702E-3	2.9388529E+0	40.0000000E+0
317.3931281E-3	-1.0040259E+0	2.9371480E+0	40.1000023E+0
317.1952361E-3	-1.0315111E+0	2.9353207E+0	40.2000008E+0
317.0168063E-3	-975.9373328E-3	2.9336732E+0	40.2999992E+0
316.8183066E-3	-967.9559877E-3	2.9318403E+0	40.4000015E+0
316.6489777E-3	-979.5125377E-3	2.9302768E+0	40.5000000E+0
316.4483579E-3	-1.0003505E+0	2.9284244E+0	40.6000023E+0
316.2998454E-3	-1.0820652E+0	2.9270531E+0	40.7000008E+0
316.1323031E-3	-1.0413558E+0	2.9255060E+0	40.7999992E+0
315.9306168E-3	-1.0478967E+0	2.9236437E+0	40.9000015E+0
315.7524959E-3	-999.2063485E-3	2.9219990E+0	41.0000000E+0
315.5723751E-3	-1.0467332E+0	2.9203359E+0	41.1000023E+0
315.3737715E-3	-1.0089104E+0	2.9185020E+0	41.2000008E+0
315.1680160E-3	-987.4253543E-3	2.9166022E+0	41.2999992E+0
314.9974268E-3	-976.4694717E-3	2.9150270E+0	41.4000015E+0
314.8115575E-3	-1.0093406E+0	2.9133108E+0	41.5000000E+0
314.6619294E-3	-1.0324253E+0	2.9119292E+0	41.6000023E+0
314.4269192E-3	-966.6929233E-3	2.9097592E+0	41.7000008E+0
314.2542966E-3	-973.3346647E-3	2.9081652E+0	41.7999992E+0
314.0961937E-3	-1.0632735E+0	2.9067054E+0	41.9000015E+0
313.8798452E-3	-1.0374659E+0	2.9047077E+0	42.0000000E+0
313.7110219E-3	-1.0261949E+0	2.9031489E+0	42.1000023E+0
313.5263548E-3	-1.0117439E+0	2.9014437E+0	42.2000008E+0
313.3155531E-3	-1.0088509E+0	2.8994973E+0	42.2999992E+0
313.1562112E-3	-1.0457044E+0	2.8980260E+0	42.4000015E+0
312.9688106E-3	-1.0344181E+0	2.8962956E+0	42.5000000E+0
312.7689277E-3	-1.0296448E+0	2.8944499E+0	42.6000023E+0
312.6057892E-3	-1.0345412E+0	2.8929436E+0	42.7000008E+0
312.4191618E-3	-1.0390057E+0	2.8912203E+0	42.7999992E+0
312.2325154E-3	-1.0416993E+0	2.8894969E+0	42.9000015E+0
312.0530656E-3	-1.0566476E+0	2.8878399E+0	43.0000000E+0
311.8896176E-3	-1.0531366E+0	2.8863307E+0	43.1000023E+0
311.6622313E-3	-1.0709741E+0	2.8842311E+0	43.2000008E+0
311.4871685E-3	-1.0391549E+0	2.8826147E+0	43.2999992E+0
311.3010232E-3	-1.0099611E+0	2.8808959E+0	43.4000015E+0
311.0879737E-3	-1.0533806E+0	2.8789287E+0	43.5000000E+0
310.8897680E-3	-1.0072127E+0	2.8770985E+0	43.6000023E+0
310.7208901E-3	-1.0582911E+0	2.8755392E+0	43.7000008E+0
310.5367330E-3	-1.0880899E+0	2.8738387E+0	43.7999992E+0
310.3522922E-3	-1.0513664E+0	2.8721357E+0	43.9000015E+0
310.1387151E-3	-1.0838230E+0	2.8701636E+0	44.0000000E+0
309.9736845E-3	-1.1339364E+0	2.8686397E+0	44.1000023E+0
309.7787176E-3	-1.0627401E+0	2.8668395E+0	44.2000008E+0
309.6021353E-3	-1.0876792E+0	2.8652090E+0	44.2999992E+0
309.4202838E-3	-1.0908925E+0	2.8635299E+0	44.4000015E+0
309.2163305E-3	-1.0737677E+0	2.8616466E+0	44.5000000E+0
309.0413414E-3	-1.0575735E+0	2.8600309E+0	44.6000023E+0
308.8559068E-3	-1.1197589E+0	2.8583186E+0	44.7000008E+0
308.6627064E-3	-1.0902481E+0	2.8565347E+0	44.7999992E+0
308.4917747E-3	-1.1490202E+0	2.8549564E+0	44.9000015E+0
308.3064390E-3	-1.1098720E+0	2.8532451E+0	45.0000000E+0
308.1282706E-3	-1.1688472E+0	2.8515999E+0	45.1000023E+0
307.9179236E-3	-1.1232763E+0	2.8496577E+0	45.2000008E+0
307.7125676E-3	-1.1291625E+0	2.8477615E+0	45.2999992E+0
307.5576747E-3	-1.1915804E+0	2.8463313E+0	45.4000015E+0
307.3605789E-3	-1.1576804E+0	2.8445113E+0	45.5000000E+0
307.1722437E-3	-1.1617627E+0	2.8427723E+0	45.6000023E+0
307.0013456E-3	-1.1661704E+0	2.8411943E+0	45.7000008E+0
306.7951600E-3	-1.1741936E+0	2.8392905E+0	45.7999992E+0
306.6019551E-3	-1.2204828E+0	2.8375065E+0	45.9000015E+0
306.4392495E-3	-1.1858674E+0	2.8360042E+0	46.0000000E+0
306.2555981E-3	-1.2271578E+0	2.8343084E+0	46.1000023E+0
306.0343424E-3	-1.2370283E+0	2.8322654E+0	46.2000008E+0
305.8548048E-3	-1.2451104E+0	2.8306076E+0	46.2999992E+0
305.6571508E-3	-1.2605935E+0	2.8287826E+0	46.4000015E+0
305.4809260E-3	-1.3168885E+0	2.8271554E+0	46.5000000E+0
305.2877463E-3	-1.2794222E+0	2.8253716E+0	46.6000023E+0
305.1233771E-3	-1.2775648E+0	2.8238539E+0	46.7000008E+0
304.8808945E-3	-1.3280245E+0	2.8216149E+0	46.7999992E+0
304.6996017E-3	-1.3275012E+0	2.8199409E+0	46.9000015E+0
304.5345933E-3	-1.3850731E+0	2.8184173E+0	47.0000000E+0
304.3253949E-3	-1.3794606E+0	2.8164856E+0	47.1000023E+0
304.1195255E-3	-1.4103426E+0	2.8145847E+0	47.2000008E+0
303.9526753E-3	-1.4258369E+0	2.8130441E+0	47.2999992E+0
303.7735607E-3	-1.4809906E+0	2.8113902E+0	47.4000015E+0
303.5952996E-3	-1.5463867E+0	2.8097442E+0	47.5000000E+0
303.3978735E-3	-1.5349961E+0	2.8079213E+0	47.6000023E+0
303.2047776E-3	-1.5827490E+0	2.8061383E+0	47.7000008E+0
303.0377079E-3	-1.6379126E+0	2.8045956E+0	47.7999992E+0
302.8148433E-3	-1.6734150E+0	2.8025378E+0	47.9000015E+0
302.6577801E-3	-1.7553774E+0	2.8010875E+0	48.0000000E+0
302.4515448E-3	-1.7256874E+0	2.7991832E+0	48.1000023E+0
302.2859147E-3	-1.8007903E+0	2.7976539E+0	48.2000008E+0
302.0854072E-3	-1.9051265E+0	2.7958025E+0	48.2999992E+0
301.8887739E-3	-1.9959808E+0	2.7939868E+0	48.4000015E+0
301.6916277E-3	-1.9917314E+0	2.7921665E+0	48.5000000E+0
301.5355919E-3	-2.0510011E+0	2.7907257E+0	48.6000023E+0
301.3832710E-3	-2.1502334E+0	2.7893192E+0	48.7000008E+0
301.1717151E-3	-2.2307359E+0	2.7873658E+0	48.7999992E+0
300.9860548E-3	-2.3321619E+0	2.7856515E+0	48.9000015E+0
300.8198376E-3	-2.4594741E+0	2.7841167E+0	49.0000000E+0
300.6452004E-3	-2.4861123E+0	2.7825042E+0	49.1000023E+0
300.4823899E-3	-2.5968362E+0	2.7810008E+0	49.2000008E+0
300.2955139E-3	-2.7339085E+0	2.7792753E+0	49.2999992E+0
300.1100994E-3	-2.8369940E+0	2.7775632E+0	49.4000015E+0
299.9474206E-3	-2.9565038E+0	2.7760611E+0	49.5000000E+0
299.7584330E-3	-3.1019250E+0	2.7743161E+0	49.6000023E+0
299.5878282E-3	-3.2354847E+0	2.7727408E+0	49.7000008E+0
299.4194367E-3	-3.3984397E+0	2.7711859E+0	49.7999992E+0
299.2298290E-3	-3.6009184E+0	2.7694352E+0	49.9000015E+0
299.0961021E-3	-3.7481820E+0	2.7682004E+0	50.0000000E+0
298.8998560E-3	-3.8492008E+0	2.7663883E+0	50.1000023E+0
298.7109795E-3	-3.9319591E+0	2.7646443E+0	50.2000008E+0
298.5633602E-3	-4.1213203E+0	2.7632813E+0	50.2999992E+0
298.3979782E-3	-4.2795763E+0	2.7617542E+0	50.4000015E+0
298.4487643E-3	-4.4188420E+0	2.7622231E+0	50.5000000E+0
298.0073462E-3	-4.5415441E+0	2.7581472E+0	50.6000023E+0
297.8373173E-3	-4.5980723E+0	2.7565773E+0	50.7000008E+0
297.6415013E-3	-4.6935620E+0	2.7547692E+0	50.7999992E+0
297.4089375E-3	-4.6451020E+0	2.7526218E+0	50.9000015E+0
297.2541139E-3	-4.7071173E+0	2.7511922E+0	51.0000000E+0
297.0382625E-3	-4.6368675E+0	2.7491991E+0	51.1000023E+0
296.8752754E-3	-4.5572717E+0	2.7476941E+0	51.2000008E+0
296.6321872E-3	-4.3385014E+0	2.7454496E+0	51.2999992E+0
296.4209760E-3	-4.1750850E+0	2.7434993E+0	51.4000015E+0
296.1851430E-3	-3.9239315E+0	2.7413217E+0	51.5000000E+0
295.9481233E-3	-3.6740122E+0	2.7391332E+0	51.6000023E+0
295.6940326E-3	-3.3338066E+0	2.7367870E+0	51.7000008E+0
295.4669558E-3	-2.9515831E+0	2.7346903E+0	51.7999992E+0
295.2116203E-3	-2.5036476E+0	2.7323326E+0	51.9000015E+0
294.9684053E-3	-2.1465758E+0	2.7300868E+0	52.0000000E+0
294.6880950E-3	-1.6117003E+0	2.7274986E+0	52.1000023E+0
294.4510355E-3	-1.2524976E+0	2.7253097E+0	52.2000008E+0
294.2049554E-3	-860.6408610E-3	2.7230374E+0	52.2999992E+0
293.9595979E-3	-493.9257727E-3	2.7207719E+0	52.4000015E+0
293.7016922E-3	-82.3340284E-3	2.7183905E+0	52.5000000E+0
293.4731707E-3	198.4065213E-3	2.7162804E+0	52.6000023E+0
293.2415185E-3	498.7679276E-3	2.7141414E+0	52.7000008E+0
293.0145803E-3	804.2755248E-3	2.7120460E+0	52.7999992E+0
292.8014641E-3	989.5331746E-3	2.7100782E+0	52.9000015E+0
292.5835167E-3	1.1272287E+0	2.7080657E+0	53.0000000E+0
292.3627397E-3	1.3047612E+0	2.7060271E+0	53.1000023E+0
292.1256089E-3	1.4497628E+0	2.7038376E+0	53.2000008E+0
291.9128737E-3	1.5554555E+0	2.7018733E+0	53.2999992E+0
291.7177599E-3	1.5328176E+0	2.7000717E+0	53.4000015E+0
291.4915597E-3	1.6082262E+0	2.6979830E+0	53.5000000E+0
291.3232263E-3	1.5125645E+0	2.6964287E+0	53.6000023E+0
291.1371626E-3	1.4801217E+0	2.6947106E+0	53.7000008E+0
290.9679349E-3	1.4913258E+0	2.6931481E+0	53.7999992E+0
290.7935374E-3	1.3949907E+0	2.6915377E+0	53.9000015E+0
290.5757241E-3	1.2997774E+0	2.6895265E+0	54.0000000E+0
290.4065477E-3	1.2551444E+0	2.6879644E+0	54.1000023E+0
290.1798882E-3	1.1862145E+0	2.6858715E+0	54.2000008E+0
290.0107951E-3	1.1222242E+0	2.6843102E+0	54.2999992E+0
289.7987526E-3	1.0767024E+0	2.6823523E+0	54.4000015E+0
289.6244440E-3	1.0072550E+0	2.6807428E+0	54.5000000E+0
289.4331603E-3	917.4702851E-3	2.6789765E+0	54.6000023E+0
289.2272216E-3	841.6736081E-3	2.6770750E+0	54.7000008E+0
289.0575737E-3	832.6758856E-3	2.6755085E+0	54.7999992E+0
288.8693178E-3	710.5451621E-3	2.6737702E+0	54.9000015E+0
288.6890105E-3	596.3508677E-3	2.6721054E+0	55.0000000E+0
288.5062350E-3	549.4591552E-3	2.6704177E+0	55.1000023E+0
288.3279195E-3	440.2942797E-3	2.6687712E+0	55.2000008E+0
288.1138130E-3	422.2073891E-3	2.6667942E+0	55.2999992E+0
287.9454059E-3	345.2653299E-3	2.6652392E+0	55.4000015E+0
287.7685203E-3	277.5742312E-3	2.6636059E+0	55.5000000E+0
287.5659357E-3	270.0453133E-3	2.6617353E+0	55.6000023E+0
287.3538167E-3	183.6627299E-3	2.6597767E+0	55.7000008E+0
287.1700423E-3	119.2310739E-3	2.6580798E+0	55.7999992E+0
286.9699493E-3	78.9444064E-3	2.6562322E+0	55.9000015E+0
286.7795432E-3	32.5113264E-3	2.6544741E+0	56.0000000E+0
286.5957912E-3	-59.2453687E-3	2.6527774E+0	56.1000023E+0
286.3910061E-3	-61.7602214E-3	2.6508865E+0	56.2000008E+0
286.1905321E-3	-131.9216047E-3	2.6490354E+0	56.2999992E+0
286.0438480E-3	-162.3000317E-3	2.6476810E+0	56.4000015E+0
285.8341406E-3	-192.1208274E-3	2.6457446E+0	56.5000000E+0
285.6210362E-3	-246.5879396E-3	2.6437769E+0	56.6000023E+0
285.4276363E-3	-235.6429514E-3	2.6419911E+0	56.7000008E+0
285.1987690E-3	-310.5998930E-3	2.6398778E+0	56.7999992E+0
285.0248526E-3	-328.9433913E-3	2.6382720E+0	56.9000015E+0
284.8232406E-3	-346.3975156E-3	2.6364103E+0	57.0000000E+0
284.6271257E-3	-365.0158345E-3	2.6345995E+0	57.1000023E+0
284.4347604E-3	-374.7655595E-3	2.6328233E+0	57.2000008E+0
284.2401684E-3	-408.1655165E-3	2.6310265E+0	57.2999992E+0
284.0498797E-3	-445.2869429E-3	2.6292694E+0	57.4000015E+0
283.8444734E-3	-511.9287385E-3	2.6273728E+0	57.5000000E+0
283.6505595E-3	-527.6381390E-3	2.6255823E+0	57.6000023E+0
283.4507436E-3	-494.9858154E-3	2.6237372E+0	57.7000008E+0
283.2315314E-3	-476.3197149E-3	2.6217131E+0	57.7999992E+0
283.0369473E-3	-503.7355804E-3	2.6199164E+0	57.9000015E+0
282.8380648E-3	-499.7235797E-3	2.6180800E+0	58.0000000E+0
282.6536966E-3	-540.3601267E-3	2.6163776E+0	58.1000023E+0
282.4429463E-3	-562.3541365E-3	2.6144316E+0	58.2000008E+0
282.2554156E-3	-619.6222135E-3	2.6127001E+0	58.2999992E+0
282.0539030E-3	-635.3977954E-3	2.6108394E+0	58.4000015E+0
281.8625841E-3	-644.8516436E-3	2.6090728E+0	58.5000000E+0
281.6675709E-3	-639.2755882E-3	2.6072721E+0	58.6000023E+0
281.4749487E-3	-623.2765524E-3	2.6054935E+0	58.7000008E+0
281.2800617E-3	-669.0521202E-3	2.6036940E+0	58.7999992E+0
281.0891472E-3	-675.7350095E-3	2.6019312E+0	58.9000015E+0
280.8623481E-3	-687.6781508E-3	2.5998370E+0	59.0000000E+0
280.6893076E-3	-650.6364361E-3	2.5982392E+0	59.1000023E+0
280.4759835E-3	-654.3824489E-3	2.5962695E+0	59.2000008E+0
280.2969789E-3	-716.1420623E-3	2.5946166E+0	59.2999992E+0
280.0918636E-3	-727.4284445E-3	2.5927227E+0	59.4000015E+0
279.9031709E-3	-767.3209123E-3	2.5909803E+0	59.5000000E+0
279.6859621E-3	-716.7981869E-3	2.5889747E+0	59.6000023E+0
279.4729900E-3	-755.4362046E-3	2.5870082E+0	59.7000008E+0
279.2528773E-3	-738.0803930E-3	2.5849758E+0	59.7999992E+0
279.0746637E-3	-771.6432450E-3	2.5833302E+0	59.9000015E+0
278.8700764E-3	-724.5663896E-3	2.5814411E+0	60.0000000E+0
278.6490883E-3	-744.7255646E-3	2.5794006E+0	60.1000023E+0
