Magnetic Field (T)	Diode Voltage (V)	Hall probe (V)	Acquisition Time 		
Tesla	Volts	Volts	Seconds		
NaN	NaN	NaN	0.0000000E+0
NaN	NaN	NaN	100.0000015E-3
277.7016156E-3	-601.7508574E-3	2.5706520E+0	200.0000030E-3
277.7230780E-3	-711.1666948E-3	2.5708502E+0	300.0000119E-3
277.8041166E-3	-700.7552279E-3	2.5715985E+0	400.0000060E-3
277.9077099E-3	-684.9415362E-3	2.5725550E+0	500.0000000E-3
278.0769801E-3	-756.1743415E-3	2.5741180E+0	600.0000238E-3
278.2155588E-3	-781.9712759E-3	2.5753976E+0	699.9999881E-3
278.4194070E-3	-714.1025191E-3	2.5772798E+0	800.0000119E-3
278.5824947E-3	-689.9537393E-3	2.5787857E+0	900.0000358E-3
278.7314441E-3	-628.8209511E-3	2.5801611E+0	1.0000000E+0
278.9084901E-3	-623.0397746E-3	2.5817958E+0	1.1000000E+0
279.0882137E-3	-691.9990186E-3	2.5834553E+0	1.2000000E+0
279.2478204E-3	-580.9762055E-3	2.5849291E+0	1.3000001E+0
279.4298144E-3	-605.6050611E-3	2.5866096E+0	1.4000000E+0
279.6023906E-3	-650.0543697E-3	2.5882031E+0	1.5000000E+0
279.7569148E-3	-664.6825938E-3	2.5896299E+0	1.6000000E+0
279.9538783E-3	-566.5304059E-3	2.5914486E+0	1.7000000E+0
280.1364554E-3	-579.9486087E-3	2.5931344E+0	1.8000001E+0
280.3227532E-3	-534.7972354E-3	2.5948546E+0	1.9000000E+0
280.4946524E-3	-569.4301837E-3	2.5964419E+0	2.0000000E+0
280.6617026E-3	-495.2331472E-3	2.5979843E+0	2.1000001E+0
280.8246896E-3	-469.3300388E-3	2.5994893E+0	2.2000000E+0
280.9945213E-3	-453.6220053E-3	2.6010574E+0	2.3000000E+0
281.1782565E-3	-449.4084205E-3	2.6027540E+0	2.4000001E+0
281.3831042E-3	-456.0049593E-3	2.6046455E+0	2.5000000E+0
281.5433673E-3	-416.1550272E-3	2.6061253E+0	2.6000001E+0
281.7341762E-3	-388.4906987E-3	2.6078871E+0	2.7000000E+0
281.8982012E-3	-333.0836143E-3	2.6094017E+0	2.8000000E+0
282.0783556E-3	-313.2800496E-3	2.6110651E+0	2.9000001E+0
282.2830211E-3	-304.3902704E-3	2.6129550E+0	3.0000000E+0
282.4483735E-3	-261.6187820E-3	2.6144818E+0	3.1000001E+0
282.5947062E-3	-205.9137419E-3	2.6158329E+0	3.2000000E+0
282.8016969E-3	-245.7929734E-3	2.6177442E+0	3.3000000E+0
282.9865299E-3	-208.4699954E-3	2.6194509E+0	3.4000001E+0
283.1568905E-3	-225.6774636E-3	2.6210239E+0	3.5000000E+0
283.3301752E-3	-175.0546408E-3	2.6226240E+0	3.6000001E+0
283.5162115E-3	-126.1703981E-3	2.6243417E+0	3.7000000E+0
283.6980630E-3	-97.2911685E-3	2.6260209E+0	3.8000000E+0
283.8622210E-3	-100.3051673E-3	2.6275367E+0	3.9000001E+0
284.0528930E-3	-44.1287278E-3	2.6292973E+0	4.0000000E+0
284.2552318E-3	-95.7936837E-3	2.6311656E+0	4.0999999E+0
284.4103001E-3	-98.0064385E-3	2.6325974E+0	4.2000003E+0
284.5998324E-3	19.6951682E-3	2.6343475E+0	4.3000002E+0
284.7693573E-3	96.0107942E-3	2.6359128E+0	4.4000001E+0
284.9289797E-3	176.5383852E-3	2.6373867E+0	4.5000000E+0
285.1262678E-3	209.1930920E-3	2.6392084E+0	4.5999999E+0
285.3225849E-3	142.3928376E-3	2.6410211E+0	4.7000003E+0
285.4994382E-3	222.1618699E-3	2.6426541E+0	4.8000002E+0
285.7005691E-3	196.7306510E-3	2.6445113E+0	4.9000001E+0
285.8635283E-3	196.4462721E-3	2.6460160E+0	5.0000000E+0
286.0608890E-3	244.1901671E-3	2.6478383E+0	5.0999999E+0
286.2331088E-3	297.8998967E-3	2.6494285E+0	5.2000003E+0
286.4022282E-3	278.2720712E-3	2.6509901E+0	5.3000002E+0
286.5794614E-3	287.8045272E-3	2.6526266E+0	5.4000001E+0
286.7574057E-3	303.7686204E-3	2.6542697E+0	5.5000000E+0
286.9341891E-3	297.0517119E-3	2.6559020E+0	5.5999999E+0
287.1167373E-3	309.5830837E-3	2.6575876E+0	5.7000003E+0
287.3241731E-3	272.2899002E-3	2.6595030E+0	5.8000002E+0
287.4836151E-3	250.6488546E-3	2.6609752E+0	5.9000001E+0
287.6889610E-3	217.0092672E-3	2.6628713E+0	6.0000000E+0
287.8581932E-3	150.5292525E-3	2.6644339E+0	6.0999999E+0
288.0412062E-3	117.9160600E-3	2.6661238E+0	6.2000003E+0
288.2493739E-3	74.7816724E-3	2.6680459E+0	6.3000002E+0
288.4337337E-3	-3.7864328E-3	2.6697482E+0	6.4000001E+0
288.6290553E-3	-133.3220820E-3	2.6715518E+0	6.5000000E+0
288.8306254E-3	-162.9393711E-3	2.6734130E+0	6.5999999E+0
289.0376233E-3	-352.5704882E-3	2.6753243E+0	6.7000003E+0
289.2225111E-3	-488.4318122E-3	2.6770315E+0	6.8000002E+0
289.4627239E-3	-652.4703578E-3	2.6792495E+0	6.9000001E+0
289.6712883E-3	-754.5258361E-3	2.6811753E+0	7.0000000E+0
289.8651848E-3	-899.0933800E-3	2.6829657E+0	7.0999999E+0
290.0865164E-3	-1.0442849E+0	2.6850094E+0	7.2000003E+0
290.2615262E-3	-1.2225684E+0	2.6866254E+0	7.3000002E+0
290.4814311E-3	-1.4536229E+0	2.6886559E+0	7.4000001E+0
290.7161513E-3	-1.5628888E+0	2.6908232E+0	7.5000000E+0
290.8883242E-3	-1.7396395E+0	2.6924130E+0	7.5999999E+0
291.0690333E-3	-1.8557594E+0	2.6940816E+0	7.7000003E+0
291.3005961E-3	-2.0064706E+0	2.6962197E+0	7.8000002E+0
291.4971361E-3	-2.1762647E+0	2.6980345E+0	7.9000001E+0
291.7131142E-3	-2.3309826E+0	2.7000288E+0	8.0000000E+0
291.9675022E-3	-2.5359765E+0	2.7023777E+0	8.1000004E+0
292.1444164E-3	-2.6631715E+0	2.7040112E+0	8.1999998E+0
292.3221344E-3	-2.6772770E+0	2.7056522E+0	8.3000002E+0
292.5448024E-3	-2.8243879E+0	2.7077082E+0	8.4000006E+0
292.7432753E-3	-2.8426641E+0	2.7095409E+0	8.5000000E+0
292.9360601E-3	-2.9284997E+0	2.7113210E+0	8.6000004E+0
293.1364269E-3	-2.9931672E+0	2.7131711E+0	8.6999998E+0
293.3077903E-3	-3.0040133E+0	2.7147534E+0	8.8000002E+0
293.5016081E-3	-3.0137310E+0	2.7165430E+0	8.9000006E+0
293.7184214E-3	-2.9770613E+0	2.7185450E+0	9.0000000E+0
293.8962434E-3	-2.9775276E+0	2.7201869E+0	9.1000004E+0
294.0601495E-3	-2.9492371E+0	2.7217004E+0	9.1999998E+0
294.2658803E-3	-2.9736713E+0	2.7236000E+0	9.3000002E+0
294.4492983E-3	-2.8800100E+0	2.7252936E+0	9.4000006E+0
294.6112374E-3	-2.8515074E+0	2.7267889E+0	9.5000000E+0
294.8112064E-3	-2.8086292E+0	2.7286353E+0	9.6000004E+0
294.9892216E-3	-2.7033405E+0	2.7302791E+0	9.6999998E+0
295.1557176E-3	-2.6736490E+0	2.7318164E+0	9.8000002E+0
295.3237375E-3	-2.6238846E+0	2.7333678E+0	9.9000006E+0
295.4956043E-3	-2.6134141E+0	2.7349548E+0	10.0000000E+0
295.6901533E-3	-2.4727309E+0	2.7367512E+0	10.1000004E+0
295.8991126E-3	-2.4708970E+0	2.7386806E+0	10.1999998E+0
296.0631154E-3	-2.4055697E+0	2.7401950E+0	10.3000002E+0
296.2625156E-3	-2.3199436E+0	2.7420362E+0	10.4000006E+0
296.4371003E-3	-2.3023692E+0	2.7436482E+0	10.5000000E+0
296.6147284E-3	-2.1820862E+0	2.7452884E+0	10.6000004E+0
296.7798758E-3	-2.0753641E+0	2.7468133E+0	10.6999998E+0
296.9727650E-3	-2.0831628E+0	2.7485943E+0	10.8000002E+0
297.1371130E-3	-2.0210429E+0	2.7501118E+0	10.9000006E+0
297.3274934E-3	-1.9787327E+0	2.7518697E+0	11.0000000E+0
297.5606784E-3	-1.8864468E+0	2.7540229E+0	11.1000004E+0
297.6222849E-3	-1.9455557E+0	2.7545917E+0	11.1999998E+0
297.8965451E-3	-1.8989519E+0	2.7571241E+0	11.3000002E+0
298.0196694E-3	-1.7423043E+0	2.7582610E+0	11.4000006E+0
298.2026119E-3	-1.7633913E+0	2.7599502E+0	11.5000000E+0
298.3981804E-3	-1.6827891E+0	2.7617561E+0	11.6000004E+0
298.5887832E-3	-1.6916122E+0	2.7635160E+0	11.6999998E+0
298.7956090E-3	-1.7270584E+0	2.7654258E+0	11.8000002E+0
298.9761538E-3	-1.6414272E+0	2.7670928E+0	11.9000006E+0
299.1262289E-3	-1.5583454E+0	2.7684786E+0	12.0000000E+0
299.3254940E-3	-1.5385118E+0	2.7703185E+0	12.1000004E+0
299.5022853E-3	-1.5413729E+0	2.7719509E+0	12.1999998E+0
299.6830776E-3	-1.5501298E+0	2.7736203E+0	12.3000002E+0
299.8780249E-3	-1.4756850E+0	2.7754204E+0	12.4000006E+0
300.0577714E-3	-1.4810203E+0	2.7770801E+0	12.5000000E+0
300.2428189E-3	-1.4675090E+0	2.7787887E+0	12.6000004E+0
300.4422326E-3	-1.3819075E+0	2.7806300E+0	12.6999998E+0
300.6393587E-3	-1.4282237E+0	2.7824502E+0	12.8000002E+0
300.8157902E-3	-1.3829437E+0	2.7840793E+0	12.9000006E+0
300.9942635E-3	-1.3975619E+0	2.7857273E+0	13.0000000E+0
301.1810563E-3	-1.3610398E+0	2.7874520E+0	13.1000004E+0
301.3621190E-3	-1.2716456E+0	2.7891239E+0	13.1999998E+0
301.5645477E-3	-1.2785041E+0	2.7909931E+0	13.3000002E+0
301.7477483E-3	-1.3086661E+0	2.7926847E+0	13.4000006E+0
301.9278116E-3	-1.2762465E+0	2.7943473E+0	13.5000000E+0
302.1298934E-3	-1.3447952E+0	2.7962132E+0	13.6000004E+0
302.2901403E-3	-1.2760891E+0	2.7976929E+0	13.6999998E+0
302.5042604E-3	-1.3185944E+0	2.7996700E+0	13.8000002E+0
302.6941363E-3	-1.3154525E+0	2.8014232E+0	13.9000006E+0
302.8715181E-3	-1.2747283E+0	2.8030611E+0	14.0000000E+0
303.0661453E-3	-1.2391133E+0	2.8048582E+0	14.1000004E+0
303.2637624E-3	-1.2156770E+0	2.8066829E+0	14.1999998E+0
303.4701592E-3	-1.1869217E+0	2.8085887E+0	14.3000002E+0
303.6726572E-3	-1.2325036E+0	2.8104585E+0	14.4000006E+0
303.8310678E-3	-1.1967672E+0	2.8119212E+0	14.5000000E+0
304.0384015E-3	-1.1811287E+0	2.8138357E+0	14.6000004E+0
304.2005662E-3	-1.1523319E+0	2.8153330E+0	14.6999998E+0
304.4105160E-3	-1.1425759E+0	2.8172716E+0	14.8000002E+0
304.6011679E-3	-1.1235618E+0	2.8190320E+0	14.9000006E+0
304.7806949E-3	-1.2109324E+0	2.8206897E+0	15.0000000E+0
304.9920022E-3	-1.1712260E+0	2.8226408E+0	15.1000004E+0
305.1600596E-3	-1.1692040E+0	2.8241926E+0	15.1999998E+0
305.3626782E-3	-1.2007937E+0	2.8260635E+0	15.3000002E+0
305.5322445E-3	-1.1703063E+0	2.8276292E+0	15.4000006E+0
305.7089224E-3	-1.1200233E+0	2.8292606E+0	15.5000000E+0
305.9372486E-3	-1.1202816E+0	2.8313689E+0	15.6000004E+0
306.1075386E-3	-1.1584997E+0	2.8329413E+0	15.6999998E+0
306.2968514E-3	-1.1746126E+0	2.8346893E+0	15.8000002E+0
306.4884915E-3	-1.1566993E+0	2.8364588E+0	15.9000006E+0
306.6704698E-3	-1.1267232E+0	2.8381391E+0	16.0000000E+0
306.8790437E-3	-1.1090479E+0	2.8400650E+0	16.1000004E+0
307.0637108E-3	-1.1181017E+0	2.8417702E+0	16.2000008E+0
307.2424512E-3	-1.0806111E+0	2.8434206E+0	16.3000011E+0
307.4138638E-3	-1.0672317E+0	2.8450034E+0	16.3999996E+0
307.6199159E-3	-1.1110442E+0	2.8469060E+0	16.5000000E+0
307.8177944E-3	-1.1140626E+0	2.8487331E+0	16.6000004E+0
307.9930511E-3	-1.0608346E+0	2.8503513E+0	16.7000008E+0
308.2070137E-3	-1.1330749E+0	2.8523270E+0	16.8000011E+0
308.3778933E-3	-1.0670765E+0	2.8539048E+0	16.8999996E+0
308.5734970E-3	-1.0905081E+0	2.8557110E+0	17.0000000E+0
308.7533424E-3	-1.0842383E+0	2.8573716E+0	17.1000004E+0
308.9473116E-3	-1.0387186E+0	2.8591626E+0	17.2000008E+0
309.1430404E-3	-1.0296214E+0	2.8609699E+0	17.3000011E+0
309.3513724E-3	-1.1276248E+0	2.8628936E+0	17.3999996E+0
309.5307603E-3	-1.1048989E+0	2.8645500E+0	17.5000000E+0
309.7080485E-3	-1.1036066E+0	2.8661870E+0	17.6000004E+0
309.9003760E-3	-1.0558527E+0	2.8679628E+0	17.7000008E+0
310.0762444E-3	-1.0655929E+0	2.8695867E+0	17.8000011E+0
310.3204962E-3	-1.0577097E+0	2.8718421E+0	17.8999996E+0
310.5197692E-3	-1.0683386E+0	2.8736821E+0	18.0000000E+0
310.6938778E-3	-1.0643892E+0	2.8752897E+0	18.1000004E+0
310.8779996E-3	-1.0595476E+0	2.8769898E+0	18.2000008E+0
311.0738760E-3	-1.0720011E+0	2.8787985E+0	18.3000011E+0
311.2702540E-3	-1.1034921E+0	2.8806118E+0	18.3999996E+0
311.4226916E-3	-1.0288161E+0	2.8820193E+0	18.5000000E+0
311.6368430E-3	-1.0566248E+0	2.8839967E+0	18.6000004E+0
311.8074606E-3	-1.0297283E+0	2.8855721E+0	18.7000008E+0
311.9981969E-3	-1.0633681E+0	2.8873333E+0	18.8000011E+0
312.2006848E-3	-1.0437292E+0	2.8892030E+0	18.8999996E+0
312.4059638E-3	-1.1061160E+0	2.8910985E+0	19.0000000E+0
312.6019284E-3	-1.0590122E+0	2.8929079E+0	19.1000004E+0
312.7768571E-3	-1.0768184E+0	2.8945231E+0	19.2000008E+0
312.9762250E-3	-1.0261185E+0	2.8963640E+0	19.3000011E+0
313.1914518E-3	-1.0817404E+0	2.8983514E+0	19.3999996E+0
313.3715251E-3	-1.0855388E+0	2.9000141E+0	19.5000000E+0
313.5432131E-3	-1.0790030E+0	2.9015994E+0	19.6000004E+0
313.7286930E-3	-1.0508749E+0	2.9033120E+0	19.7000008E+0
313.9403512E-3	-1.0451734E+0	2.9052664E+0	19.8000011E+0
314.1046338E-3	-1.0714410E+0	2.9067833E+0	19.8999996E+0
314.3033151E-3	-1.0866968E+0	2.9086179E+0	20.0000000E+0
314.5104013E-3	-1.1109555E+0	2.9105300E+0	20.1000004E+0
314.6998560E-3	-1.0518884E+0	2.9122794E+0	20.2000008E+0
314.8882420E-3	-1.0988135E+0	2.9140189E+0	20.3000011E+0
315.0917137E-3	-1.0679889E+0	2.9158976E+0	20.3999996E+0
315.2371386E-3	-1.0287609E+0	2.9172404E+0	20.5000000E+0
315.4362551E-3	-1.0567445E+0	2.9190790E+0	20.6000004E+0
315.6216417E-3	-1.0945368E+0	2.9207908E+0	20.7000008E+0
315.8147935E-3	-1.0711257E+0	2.9225743E+0	20.8000011E+0
316.0068856E-3	-1.0339383E+0	2.9243480E+0	20.8999996E+0
316.2179471E-3	-1.0170498E+0	2.9262968E+0	21.0000000E+0
316.4152139E-3	-1.0779406E+0	2.9281183E+0	21.1000004E+0
316.5895002E-3	-1.0682950E+0	2.9297276E+0	21.2000008E+0
316.7731098E-3	-1.0047394E+0	2.9314230E+0	21.3000011E+0
316.9530758E-3	-961.6402479E-3	2.9330847E+0	21.3999996E+0
317.1398043E-3	-1.0424111E+0	2.9348089E+0	21.5000000E+0
317.3680861E-3	-1.0385510E+0	2.9369168E+0	21.6000004E+0
317.5344782E-3	-1.0308198E+0	2.9384532E+0	21.7000008E+0
317.7192514E-3	-1.0421622E+0	2.9401593E+0	21.8000011E+0
317.8881160E-3	-1.0596741E+0	2.9417185E+0	21.8999996E+0
318.0748713E-3	-989.5717575E-3	2.9434429E+0	22.0000000E+0
318.2994868E-3	-1.0410859E+0	2.9455170E+0	22.1000004E+0
318.4743205E-3	-1.0943038E+0	2.9471313E+0	22.2000008E+0
318.6580373E-3	-1.0556545E+0	2.9488277E+0	22.3000011E+0
318.8625666E-3	-1.0431369E+0	2.9507162E+0	22.3999996E+0
319.0377892E-3	-1.0579258E+0	2.9523342E+0	22.5000000E+0
319.2608476E-3	-1.1081000E+0	2.9543938E+0	22.6000004E+0
319.4599507E-3	-1.0901487E+0	2.9562322E+0	22.7000008E+0
319.6420877E-3	-1.0015067E+0	2.9579140E+0	22.8000011E+0
319.8338602E-3	-982.6352226E-3	2.9596848E+0	22.8999996E+0
320.0233624E-3	-1.0660527E+0	2.9614346E+0	23.0000000E+0
320.2204421E-3	-1.0716527E+0	2.9632543E+0	23.1000004E+0
320.4167212E-3	-1.0558170E+0	2.9650667E+0	23.2000008E+0
320.6270704E-3	-1.0713652E+0	2.9670090E+0	23.3000011E+0
320.7921793E-3	-1.0296162E+0	2.9685335E+0	23.3999996E+0
320.9850004E-3	-1.0284512E+0	2.9703139E+0	23.5000000E+0
321.1775271E-3	-1.0640005E+0	2.9720917E+0	23.6000004E+0
321.3876752E-3	-1.1273284E+0	2.9740321E+0	23.7000008E+0
321.5652251E-3	-1.0841748E+0	2.9756715E+0	23.8000011E+0
321.7674622E-3	-1.0811556E+0	2.9775389E+0	23.8999996E+0
321.9326453E-3	-1.0787849E+0	2.9790641E+0	24.0000000E+0
322.1576317E-3	-1.0605987E+0	2.9811416E+0	24.1000004E+0
322.3442959E-3	-1.0825882E+0	2.9828652E+0	24.2000008E+0
322.5339981E-3	-1.0727730E+0	2.9846168E+0	24.3000011E+0
322.7018488E-3	-1.0392101E+0	2.9861667E+0	24.3999996E+0
322.9035853E-3	-1.0250003E+0	2.9880294E+0	24.5000000E+0
323.1084040E-3	-1.0522984E+0	2.9899206E+0	24.6000004E+0
323.2815422E-3	-1.1243481E+0	2.9915193E+0	24.7000008E+0
323.4830978E-3	-1.0462043E+0	2.9933804E+0	24.8000011E+0
323.6775451E-3	-1.0282958E+0	2.9951759E+0	24.8999996E+0
323.8370921E-3	-1.0215393E+0	2.9966490E+0	25.0000000E+0
324.0507949E-3	-1.0602636E+0	2.9986223E+0	25.1000004E+0
324.2662541E-3	-1.0284721E+0	3.0006118E+0	25.2000008E+0
324.4489536E-3	-1.0598421E+0	3.0022987E+0	25.3000011E+0
324.6597000E-3	-1.0851333E+0	3.0042447E+0	25.3999996E+0
324.8280540E-3	-1.0756402E+0	3.0057992E+0	25.5000000E+0
325.0089379E-3	-1.0414492E+0	3.0074694E+0	25.6000004E+0
325.1871292E-3	-1.0430663E+0	3.0091148E+0	25.7000008E+0
325.3796000E-3	-1.0578091E+0	3.0108920E+0	25.8000011E+0
325.5729697E-3	-1.0660397E+0	3.0126775E+0	25.8999996E+0
325.7472627E-3	-1.0444165E+0	3.0142868E+0	26.0000000E+0
325.9275572E-3	-1.0242187E+0	3.0159516E+0	26.1000004E+0
326.1366076E-3	-973.2975659E-3	3.0178819E+0	26.2000008E+0
326.3387788E-3	-1.0684728E+0	3.0197487E+0	26.3000011E+0
326.5169645E-3	-1.0752716E+0	3.0213939E+0	26.3999996E+0
326.7181139E-3	-1.0225916E+0	3.0232513E+0	26.5000000E+0
326.9228135E-3	-1.0353615E+0	3.0251414E+0	26.6000004E+0
327.1056782E-3	-1.0375017E+0	3.0268299E+0	26.7000008E+0
327.2948057E-3	-1.0140029E+0	3.0285762E+0	26.8000011E+0
327.4883056E-3	-1.0421888E+0	3.0303629E+0	26.8999996E+0
327.6768770E-3	-1.0483717E+0	3.0321041E+0	27.0000000E+0
327.8371731E-3	-1.0043559E+0	3.0335842E+0	27.1000004E+0
328.0456855E-3	-1.0517239E+0	3.0355096E+0	27.2000008E+0
328.2443210E-3	-1.0077313E+0	3.0373437E+0	27.3000011E+0
328.4336377E-3	-1.0231157E+0	3.0390918E+0	27.3999996E+0
328.6392770E-3	-1.0406263E+0	3.0409906E+0	27.5000000E+0
328.8077584E-3	-1.0390151E+0	3.0425462E+0	27.6000004E+0
329.0133312E-3	-1.0408473E+0	3.0444444E+0	27.7000008E+0
329.2057166E-3	-1.0385079E+0	3.0462208E+0	27.8000011E+0
329.4100698E-3	-1.0575306E+0	3.0481078E+0	27.8999996E+0
329.5920744E-3	-1.0193113E+0	3.0497883E+0	28.0000000E+0
329.7989846E-3	-1.1107004E+0	3.0516988E+0	28.1000004E+0
329.9575287E-3	-1.0511320E+0	3.0531628E+0	28.2000008E+0
330.1692690E-3	-1.0406871E+0	3.0551179E+0	28.3000011E+0
330.3790160E-3	-1.0653680E+0	3.0570546E+0	28.3999996E+0
330.5388495E-3	-1.0061696E+0	3.0585305E+0	28.5000000E+0
330.7446352E-3	-1.0641792E+0	3.0604306E+0	28.6000004E+0
330.9533034E-3	-1.0699937E+0	3.0623574E+0	28.7000008E+0
331.1192944E-3	-1.1236744E+0	3.0638901E+0	28.8000011E+0
331.3006761E-3	-999.6470146E-3	3.0655649E+0	28.8999996E+0
331.4971401E-3	-1.0699270E+0	3.0673789E+0	29.0000000E+0
331.7098060E-3	-1.0775070E+0	3.0693426E+0	29.1000004E+0
331.8801231E-3	-1.0629879E+0	3.0709153E+0	29.2000008E+0
332.0817636E-3	-1.0587535E+0	3.0727771E+0	29.3000011E+0
332.2572354E-3	-1.0171424E+0	3.0743974E+0	29.3999996E+0
332.4621394E-3	-1.0153674E+0	3.0762894E+0	29.5000000E+0
332.6473026E-3	-1.0433665E+0	3.0779991E+0	29.6000004E+0
332.8470839E-3	-987.5898536E-3	3.0798438E+0	29.7000008E+0
333.0334877E-3	-1.0346367E+0	3.0815650E+0	29.8000011E+0
333.2261765E-3	-1.0436176E+0	3.0833442E+0	29.8999996E+0
333.4081755E-3	-1.1045980E+0	3.0850247E+0	30.0000000E+0
NaN	NaN	NaN	30.1000004E+0
NaN	NaN	NaN	30.2000008E+0
333.9784585E-3	-1.0409039E+0	3.0902905E+0	30.3000011E+0
334.0680427E-3	-1.0492600E+0	3.0911177E+0	30.3999996E+0
334.0557469E-3	-990.4394202E-3	3.0910041E+0	30.5000000E+0
333.9384907E-3	-1.0035422E+0	3.0899214E+0	30.6000004E+0
333.8252433E-3	-1.0693056E+0	3.0888757E+0	30.7000008E+0
333.6537648E-3	-1.0646128E+0	3.0872924E+0	30.8000011E+0
333.5118208E-3	-1.0505263E+0	3.0859817E+0	30.8999996E+0
333.3833984E-3	-1.0493409E+0	3.0847959E+0	31.0000000E+0
333.2210850E-3	-1.0100221E+0	3.0832972E+0	31.1000004E+0
333.0753383E-3	-1.0357644E+0	3.0819514E+0	31.2000008E+0
332.9035408E-3	-1.0966902E+0	3.0803651E+0	31.3000011E+0
332.7451056E-3	-1.0421911E+0	3.0789022E+0	31.3999996E+0
332.5754672E-3	-1.0094477E+0	3.0773358E+0	31.5000000E+0
332.3795725E-3	-1.0073983E+0	3.0755270E+0	31.6000004E+0
332.2238064E-3	-1.0453110E+0	3.0740887E+0	31.7000008E+0
332.0773302E-3	-1.0310184E+0	3.0727362E+0	31.8000011E+0
331.9146544E-3	-1.0660207E+0	3.0712341E+0	31.8999996E+0
331.7430221E-3	-1.0471944E+0	3.0696493E+0	32.0000000E+0
331.5284165E-3	-1.0243371E+0	3.0676677E+0	32.1000023E+0
331.3915138E-3	-1.1068966E+0	3.0664036E+0	32.2000008E+0
331.1792495E-3	-1.0288171E+0	3.0644437E+0	32.2999992E+0
331.0355185E-3	-1.0179896E+0	3.0631165E+0	32.4000015E+0
330.8854831E-3	-1.0580990E+0	3.0617311E+0	32.5000000E+0
330.6972529E-3	-991.9332839E-3	3.0599931E+0	32.6000023E+0
330.5199851E-3	-1.0488850E+0	3.0583563E+0	32.7000008E+0
330.3390839E-3	-1.0430396E+0	3.0566859E+0	32.7999992E+0
330.1607044E-3	-1.0057945E+0	3.0550388E+0	32.9000015E+0
330.0017066E-3	-1.0180637E+0	3.0535707E+0	33.0000000E+0
329.8229170E-3	-1.0398165E+0	3.0519198E+0	33.1000023E+0
329.6560904E-3	-1.0272369E+0	3.0503794E+0	33.2000008E+0
329.4783377E-3	-966.3044544E-3	3.0487381E+0	33.2999992E+0
329.3006615E-3	-994.8133363E-3	3.0470975E+0	33.4000015E+0
329.1283740E-3	-1.0577896E+0	3.0455067E+0	33.5000000E+0
328.9748633E-3	-1.0725636E+0	3.0440892E+0	33.6000023E+0
328.7628850E-3	-1.0349497E+0	3.0421319E+0	33.7000008E+0
328.5890546E-3	-977.7861930E-3	3.0405268E+0	33.7999992E+0
328.4215888E-3	-1.0493068E+0	3.0389805E+0	33.9000015E+0
328.2689261E-3	-1.1349052E+0	3.0375709E+0	34.0000000E+0
328.1000615E-3	-1.0906920E+0	3.0360116E+0	34.1000023E+0
327.9266383E-3	-1.0856117E+0	3.0344103E+0	34.2000008E+0
327.7134528E-3	-1.0092373E+0	3.0324419E+0	34.2999992E+0
327.5315600E-3	-1.0505647E+0	3.0307623E+0	34.4000015E+0
327.3579820E-3	-993.7472841E-3	3.0291596E+0	34.5000000E+0
327.2062193E-3	-1.0625047E+0	3.0277583E+0	34.6000023E+0
327.0310168E-3	-1.0727948E+0	3.0261405E+0	34.7000008E+0
326.8468453E-3	-1.0298700E+0	3.0244399E+0	34.7999992E+0
326.6646357E-3	-1.0744374E+0	3.0227575E+0	34.9000015E+0
326.5002117E-3	-1.0170195E+0	3.0212393E+0	35.0000000E+0
326.2943406E-3	-1.0601214E+0	3.0193383E+0	35.1000023E+0
326.1154974E-3	-1.0109740E+0	3.0176870E+0	35.2000008E+0
325.9587398E-3	-1.0784947E+0	3.0162395E+0	35.2999992E+0
325.7603552E-3	-1.0664010E+0	3.0144077E+0	35.4000015E+0
325.6134633E-3	-1.0898957E+0	3.0130514E+0	35.5000000E+0
325.4124462E-3	-1.1469185E+0	3.0111953E+0	35.6000023E+0
325.2546674E-3	-1.0980085E+0	3.0097384E+0	35.7000008E+0
325.0644401E-3	-1.0435268E+0	3.0079819E+0	35.7999992E+0
324.8784708E-3	-1.0868752E+0	3.0062647E+0	35.9000015E+0
324.6955707E-3	-1.0652279E+0	3.0045759E+0	36.0000000E+0
324.5247799E-3	-1.0554821E+0	3.0029989E+0	36.1000023E+0
324.3249623E-3	-1.0131263E+0	3.0011539E+0	36.2000008E+0
324.1674734E-3	-1.0704339E+0	2.9996997E+0	36.2999992E+0
324.0063086E-3	-1.0616331E+0	2.9982115E+0	36.4000015E+0
323.8249147E-3	-1.1023888E+0	2.9965366E+0	36.5000000E+0
323.6311327E-3	-1.0559999E+0	2.9947473E+0	36.6000023E+0
323.4375256E-3	-989.5471162E-3	2.9929596E+0	36.7000008E+0
323.2692196E-3	-1.0256723E+0	2.9914055E+0	36.7999992E+0
323.1312638E-3	-1.1053966E+0	2.9901317E+0	36.9000015E+0
322.9159035E-3	-1.0482373E+0	2.9881432E+0	37.0000000E+0
322.7167384E-3	-978.1763694E-3	2.9863041E+0	37.1000023E+0
322.5666656E-3	-1.0458396E+0	2.9849184E+0	37.2000008E+0
322.3685412E-3	-1.0088206E+0	2.9830890E+0	37.2999992E+0
322.1801212E-3	-1.0192901E+0	2.9813492E+0	37.4000015E+0
322.0097432E-3	-976.8708158E-3	2.9797760E+0	37.5000000E+0
321.8331357E-3	-1.0070715E+0	2.9781453E+0	37.6000023E+0
321.6666291E-3	-1.0352220E+0	2.9766078E+0	37.7000008E+0
321.4913462E-3	-1.0542131E+0	2.9749893E+0	37.7999992E+0
321.2849416E-3	-1.0037056E+0	2.9730835E+0	37.9000015E+0
321.1047722E-3	-1.0097119E+0	2.9714199E+0	38.0000000E+0
320.9301429E-3	-1.0798664E+0	2.9698074E+0	38.1000023E+0
320.7317062E-3	-1.0127137E+0	2.9679751E+0	38.2000008E+0
320.5749570E-3	-1.0597203E+0	2.9665278E+0	38.2999992E+0
320.3819851E-3	-1.1123587E+0	2.9647459E+0	38.4000015E+0
320.2221644E-3	-1.0952657E+0	2.9632702E+0	38.5000000E+0
320.0207647E-3	-1.0979058E+0	2.9614106E+0	38.6000023E+0
319.8561737E-3	-1.0412433E+0	2.9598908E+0	38.7000008E+0
319.6431044E-3	-1.0668915E+0	2.9579234E+0	38.7999992E+0
319.4675562E-3	-1.0478683E+0	2.9563025E+0	38.9000015E+0
319.3095634E-3	-1.1192479E+0	2.9548436E+0	39.0000000E+0
319.1127435E-3	-1.0814455E+0	2.9530263E+0	39.1000023E+0
318.9438543E-3	-1.0698735E+0	2.9514668E+0	39.2000008E+0
318.7463059E-3	-1.0261305E+0	2.9496427E+0	39.2999992E+0
318.5710688E-3	-1.0838649E+0	2.9480246E+0	39.4000015E+0
318.4050220E-3	-1.0897210E+0	2.9464914E+0	39.5000000E+0
318.2188998E-3	-1.0391243E+0	2.9447729E+0	39.6000023E+0
318.0140078E-3	-1.0159192E+0	2.9428810E+0	39.7000008E+0
317.8496481E-3	-1.0235064E+0	2.9413633E+0	39.7999992E+0
317.6755858E-3	-1.0545908E+0	2.9397561E+0	39.9000015E+0
317.4822497E-3	-1.0876428E+0	2.9379709E+0	40.0000000E+0
317.3099712E-3	-1.0701331E+0	2.9363802E+0	40.1000023E+0
317.1277459E-3	-1.0660441E+0	2.9346976E+0	40.2000008E+0
316.9308048E-3	-1.0188666E+0	2.9328791E+0	40.2999992E+0
316.7722651E-3	-1.0623994E+0	2.9314152E+0	40.4000015E+0
316.5807702E-3	-1.0555765E+0	2.9296470E+0	40.5000000E+0
316.3764879E-3	-1.0604492E+0	2.9277607E+0	40.6000023E+0
316.2077752E-3	-976.9095755E-3	2.9262029E+0	40.7000008E+0
316.0338783E-3	-993.0613960E-3	2.9245972E+0	40.7999992E+0
315.8614590E-3	-1.1302658E+0	2.9230052E+0	40.9000015E+0
315.6532159E-3	-1.0272126E+0	2.9210823E+0	41.0000000E+0
315.4850507E-3	-1.0652627E+0	2.9195296E+0	41.1000023E+0
315.2980915E-3	-1.0346845E+0	2.9178032E+0	41.2000008E+0
315.1086664E-3	-1.0347612E+0	2.9160542E+0	41.2999992E+0
314.9251015E-3	-1.0978447E+0	2.9143592E+0	41.4000015E+0
314.7356831E-3	-1.0272023E+0	2.9126102E+0	41.5000000E+0
314.5860416E-3	-1.0334672E+0	2.9112285E+0	41.6000023E+0
314.3957014E-3	-1.0649124E+0	2.9094709E+0	41.7000008E+0
314.1818724E-3	-1.0893191E+0	2.9074965E+0	41.7999992E+0
314.0244165E-3	-1.1151203E+0	2.9060426E+0	41.9000015E+0
313.8486336E-3	-1.1011335E+0	2.9044195E+0	42.0000000E+0
313.6320448E-3	-1.0657330E+0	2.9024196E+0	42.1000023E+0
313.4524005E-3	-1.0454220E+0	2.9007609E+0	42.2000008E+0
313.2901274E-3	-1.0941004E+0	2.8992625E+0	42.2999992E+0
313.0601115E-3	-1.0327815E+0	2.8971386E+0	42.4000015E+0
312.9100677E-3	-1.0671679E+0	2.8957532E+0	42.5000000E+0
312.7221890E-3	-1.0873997E+0	2.8940184E+0	42.6000023E+0
312.5313980E-3	-1.0184039E+0	2.8922567E+0	42.7000008E+0
312.3220152E-3	-1.0530109E+0	2.8903233E+0	42.7999992E+0
312.1470357E-3	-992.8829847E-3	2.8887076E+0	42.9000015E+0
311.9524129E-3	-1.0430771E+0	2.8869106E+0	43.0000000E+0
311.7788277E-3	-1.1066671E+0	2.8853077E+0	43.1000023E+0
311.5915735E-3	-1.0642112E+0	2.8835787E+0	43.2000008E+0
311.3902068E-3	-1.0692342E+0	2.8817194E+0	43.2999992E+0
311.2126887E-3	-1.0680279E+0	2.8800802E+0	43.4000015E+0
311.0302696E-3	-1.0757737E+0	2.8783958E+0	43.5000000E+0
310.8379256E-3	-1.1077178E+0	2.8766198E+0	43.6000023E+0
310.6337109E-3	-1.1076436E+0	2.8747342E+0	43.7000008E+0
310.4439948E-3	-1.0503480E+0	2.8729824E+0	43.7999992E+0
310.2345857E-3	-1.0410800E+0	2.8710488E+0	43.9000015E+0
310.0762421E-3	-1.1355252E+0	2.8695867E+0	44.0000000E+0
309.8692286E-3	-1.0300799E+0	2.8676752E+0	44.1000023E+0
309.7012366E-3	-1.0801103E+0	2.8661241E+0	44.2000008E+0
309.5213632E-3	-1.0859981E+0	2.8644632E+0	44.2999992E+0
309.3351325E-3	-1.0410082E+0	2.8627436E+0	44.4000015E+0
309.1871322E-3	-1.1571141E+0	2.8613770E+0	44.5000000E+0
308.9736971E-3	-1.0442849E+0	2.8594063E+0	44.6000023E+0
308.7511324E-3	-1.1227242E+0	2.8573512E+0	44.7000008E+0
308.5901090E-3	-1.1199957E+0	2.8558643E+0	44.7999992E+0
308.4001979E-3	-1.0886950E+0	2.8541108E+0	44.9000015E+0
308.2154152E-3	-1.0478222E+0	2.8524046E+0	45.0000000E+0
308.0474757E-3	-1.0740650E+0	2.8508539E+0	45.1000023E+0
307.8346946E-3	-1.1320763E+0	2.8488891E+0	45.2000008E+0
307.6451310E-3	-1.0921753E+0	2.8471388E+0	45.2999992E+0
307.4354030E-3	-1.0546380E+0	2.8452022E+0	45.4000015E+0
307.2737533E-3	-1.1143577E+0	2.8437096E+0	45.5000000E+0
307.0807004E-3	-1.0994732E+0	2.8419271E+0	45.6000023E+0
306.8877016E-3	-1.1069014E+0	2.8401450E+0	45.7000008E+0
306.6890002E-3	-1.0712238E+0	2.8383103E+0	45.7999992E+0
306.5188954E-3	-1.0487160E+0	2.8367396E+0	45.9000015E+0
306.3323171E-3	-1.1266231E+0	2.8350168E+0	46.0000000E+0
306.1456898E-3	-1.1672685E+0	2.8332935E+0	46.1000023E+0
305.9405477E-3	-1.1087502E+0	2.8313993E+0	46.2000008E+0
305.7532678E-3	-1.1334379E+0	2.8296701E+0	46.2999992E+0
305.5698024E-3	-1.1473699E+0	2.8279760E+0	46.4000015E+0
305.3883090E-3	-1.1951893E+0	2.8263002E+0	46.5000000E+0
305.2008855E-3	-1.1759538E+0	2.8245696E+0	46.6000023E+0
305.0107281E-3	-1.1635777E+0	2.8228137E+0	46.7000008E+0
304.8012263E-3	-1.1734158E+0	2.8208793E+0	46.7999992E+0
304.6048393E-3	-1.2149472E+0	2.8190659E+0	46.9000015E+0
304.4137920E-3	-1.1664740E+0	2.8173019E+0	47.0000000E+0
304.2535374E-3	-1.1726339E+0	2.8158221E+0	47.1000023E+0
304.0694173E-3	-1.1985480E+0	2.8141220E+0	47.2000008E+0
303.8425567E-3	-1.1449172E+0	2.8120273E+0	47.2999992E+0
303.6524554E-3	-1.1519826E+0	2.8102720E+0	47.4000015E+0
303.4599415E-3	-1.2187470E+0	2.8084944E+0	47.5000000E+0
303.2660517E-3	-1.1972182E+0	2.8067041E+0	47.6000023E+0
303.0964480E-3	-1.2282484E+0	2.8051380E+0	47.7000008E+0
302.8886876E-3	-1.2631449E+0	2.8032196E+0	47.7999992E+0
302.6766797E-3	-1.2612388E+0	2.8012620E+0	47.9000015E+0
302.4799810E-3	-1.2798988E+0	2.7994458E+0	48.0000000E+0
302.2996811E-3	-1.2989457E+0	2.7977810E+0	48.1000023E+0
302.1222589E-3	-1.2657728E+0	2.7961427E+0	48.2000008E+0
301.9271010E-3	-1.2913891E+0	2.7943407E+0	48.2999992E+0
301.7170160E-3	-1.3117989E+0	2.7924009E+0	48.4000015E+0
301.5221497E-3	-1.3035913E+0	2.7906016E+0	48.5000000E+0
301.3271331E-3	-1.3258884E+0	2.7888009E+0	48.6000023E+0
301.1494403E-3	-1.3383683E+0	2.7871601E+0	48.7000008E+0
300.9612899E-3	-1.3170909E+0	2.7854228E+0	48.7999992E+0
300.7592673E-3	-1.3937998E+0	2.7835574E+0	48.9000015E+0
300.5615888E-3	-1.3809020E+0	2.7817321E+0	49.0000000E+0
300.3698777E-3	-1.4074442E+0	2.7799619E+0	49.1000023E+0
300.1960802E-3	-1.4950282E+0	2.7783572E+0	49.2000008E+0
300.0065915E-3	-1.4687056E+0	2.7766075E+0	49.2999992E+0
299.8084415E-3	-1.4169968E+0	2.7747779E+0	49.4000015E+0
299.6250095E-3	-1.5364921E+0	2.7730841E+0	49.5000000E+0
299.4558281E-3	-1.5562691E+0	2.7715220E+0	49.6000023E+0
299.2522385E-3	-1.5486951E+0	2.7696421E+0	49.7000008E+0
299.0861068E-3	-1.5964285E+0	2.7681081E+0	49.7999992E+0
298.8780000E-3	-1.6334110E+0	2.7661865E+0	49.9000015E+0
298.7019908E-3	-1.6669673E+0	2.7645613E+0	50.0000000E+0
298.5132764E-3	-1.7140061E+0	2.7628188E+0	50.1000023E+0
298.3236781E-3	-1.7747806E+0	2.7610681E+0	50.2000008E+0
298.0898841E-3	-1.7422734E+0	2.7589094E+0	50.2999992E+0
297.7860463E-3	-1.8045510E+0	2.7561038E+0	50.4000015E+0
297.8061426E-3	-1.8302643E+0	2.7562894E+0	50.5000000E+0
297.5414900E-3	-1.8838844E+0	2.7538457E+0	50.6000023E+0
297.3745438E-3	-1.9837155E+0	2.7523042E+0	50.7000008E+0
297.2165242E-3	-2.0600460E+0	2.7508451E+0	50.7999992E+0
297.0080302E-3	-2.0400747E+0	2.7489199E+0	50.9000015E+0
296.8067881E-3	-2.0460999E+0	2.7470618E+0	51.0000000E+0
296.6241606E-3	-2.1269522E+0	2.7453754E+0	51.1000023E+0
296.4488928E-3	-2.2401317E+0	2.7437571E+0	51.2000008E+0
296.2345542E-3	-2.2720613E+0	2.7417780E+0	51.2999992E+0
296.0546988E-3	-2.3358893E+0	2.7401173E+0	51.4000015E+0
295.8622285E-3	-2.4510641E+0	2.7383401E+0	51.5000000E+0
295.6981889E-3	-2.4395314E+0	2.7368254E+0	51.6000023E+0
295.4931759E-3	-2.5011577E+0	2.7349324E+0	51.7000008E+0
295.3197544E-3	-2.5627311E+0	2.7333311E+0	51.7999992E+0
295.1412631E-3	-2.6705298E+0	2.7316829E+0	51.9000015E+0
294.9564905E-3	-2.7508892E+0	2.7299768E+0	52.0000000E+0
294.7417464E-3	-2.7889717E+0	2.7279940E+0	52.1000023E+0
294.5787447E-3	-2.8613288E+0	2.7264889E+0	52.2000008E+0
294.3761283E-3	-2.8829536E+0	2.7246180E+0	52.2999992E+0
294.2026532E-3	-2.9806304E+0	2.7230162E+0	52.4000015E+0
294.0111315E-3	-3.0434137E+0	2.7212478E+0	52.5000000E+0
293.8162339E-3	-3.0756362E+0	2.7194481E+0	52.6000023E+0
293.6091790E-3	-2.9962020E+0	2.7175363E+0	52.7000008E+0
293.4163017E-3	-3.0868354E+0	2.7157553E+0	52.7999992E+0
293.2032937E-3	-3.0409519E+0	2.7137885E+0	52.9000015E+0
293.0014549E-3	-3.0074694E+0	2.7119248E+0	53.0000000E+0
292.8238971E-3	-2.9647673E+0	2.7102853E+0	53.1000023E+0
292.6071676E-3	-2.9217267E+0	2.7082841E+0	53.2000008E+0
292.3862806E-3	-2.8490291E+0	2.7062445E+0	53.2999992E+0
292.1529715E-3	-2.6556785E+0	2.7040902E+0	53.4000015E+0
291.9584571E-3	-2.6326578E+0	2.7022942E+0	53.5000000E+0
291.7493565E-3	-2.5091957E+0	2.7003634E+0	53.6000023E+0
291.5302069E-3	-2.2996832E+0	2.6983399E+0	53.7000008E+0
291.2944453E-3	-2.1526011E+0	2.6961629E+0	53.7999992E+0
291.1055113E-3	-2.0327878E+0	2.6944184E+0	53.9000015E+0
290.8775546E-3	-1.8738685E+0	2.6923135E+0	54.0000000E+0
290.6595648E-3	-1.6373927E+0	2.6903007E+0	54.1000023E+0
290.4422654E-3	-1.4673449E+0	2.6882942E+0	54.2000008E+0
290.2258856E-3	-1.2951323E+0	2.6862963E+0	54.2999992E+0
290.0115917E-3	-1.0733170E+0	2.6843176E+0	54.4000015E+0
289.7954907E-3	-914.1581126E-3	2.6823222E+0	54.5000000E+0
289.5670368E-3	-753.8585489E-3	2.6802127E+0	54.6000023E+0
289.3400349E-3	-574.6836885E-3	2.6781167E+0	54.7000008E+0
289.1274002E-3	-458.1112720E-3	2.6761533E+0	54.7999992E+0
288.9387790E-3	-308.3110940E-3	2.6744116E+0	54.9000015E+0
288.6951958E-3	-135.4955561E-3	2.6721625E+0	55.0000000E+0
288.5055428E-3	-113.2180856E-3	2.6704113E+0	55.1000023E+0
288.2983840E-3	-6.0839752E-3	2.6684985E+0	55.2000008E+0
288.0708402E-3	90.7575731E-3	2.6663974E+0	55.2999992E+0
287.8621071E-3	177.8892909E-3	2.6644701E+0	55.4000015E+0
287.6451592E-3	266.0666442E-3	2.6624668E+0	55.5000000E+0
287.4345183E-3	276.9799551E-3	2.6605219E+0	55.6000023E+0
287.2580527E-3	283.3686699E-3	2.6588925E+0	55.7000008E+0
287.0416807E-3	351.5983604E-3	2.6568946E+0	55.7999992E+0
286.8342711E-3	346.3936431E-3	2.6549794E+0	55.9000015E+0
286.6387238E-3	386.6282012E-3	2.6531738E+0	56.0000000E+0
286.4463893E-3	287.9228388E-3	2.6513979E+0	56.1000023E+0
286.2443220E-3	335.3065789E-3	2.6495321E+0	56.2000008E+0
286.0561142E-3	364.6383904E-3	2.6477942E+0	56.2999992E+0
285.8477035E-3	318.7544666E-3	2.6458698E+0	56.4000015E+0
285.6905459E-3	303.1056714E-3	2.6444187E+0	56.5000000E+0
285.4650780E-3	246.9114872E-3	2.6423368E+0	56.6000023E+0
285.2678598E-3	190.9470861E-3	2.6405158E+0	56.7000008E+0
285.0702024E-3	202.5921995E-3	2.6386907E+0	56.7999992E+0
284.8761032E-3	169.2539878E-3	2.6368985E+0	56.9000015E+0
284.6969522E-3	107.1448818E-3	2.6352442E+0	57.0000000E+0
284.5080360E-3	97.2164515E-3	2.6334999E+0	57.1000023E+0
284.3026889E-3	52.2470693E-3	2.6316038E+0	57.2000008E+0
284.1116359E-3	-21.5861293E-3	2.6298397E+0	57.2999992E+0
283.8847010E-3	-17.8792992E-3	2.6277442E+0	57.4000015E+0
283.7043495E-3	-23.4375481E-3	2.6260789E+0	57.5000000E+0
283.5052307E-3	-55.1175361E-3	2.6242404E+0	57.6000023E+0
283.3143694E-3	-98.7613555E-3	2.6224780E+0	57.7000008E+0
283.1119328E-3	-142.3463492E-3	2.6206088E+0	57.7999992E+0
282.9178296E-3	-184.6672005E-3	2.6188165E+0	57.9000015E+0
282.7268979E-3	-182.0290533E-3	2.6170535E+0	58.0000000E+0
282.5244345E-3	-231.8854252E-3	2.6151841E+0	58.1000023E+0
282.2976974E-3	-264.2379826E-3	2.6130905E+0	58.2000008E+0
282.1012257E-3	-250.5813037E-3	2.6112763E+0	58.2999992E+0
281.9226616E-3	-331.0781935E-3	2.6096275E+0	58.4000015E+0
281.7395783E-3	-385.0467940E-3	2.6079370E+0	58.5000000E+0
281.5567698E-3	-431.5345059E-3	2.6062490E+0	58.6000023E+0
281.3465229E-3	-415.9158456E-3	2.6043077E+0	58.7000008E+0
281.1472667E-3	-448.2346933E-3	2.6024678E+0	58.7999992E+0
280.9543473E-3	-475.0817716E-3	2.6006865E+0	58.9000015E+0
280.7615150E-3	-471.7660515E-3	2.5989060E+0	59.0000000E+0
280.5669727E-3	-465.8191738E-3	2.5971096E+0	59.1000023E+0
280.3809419E-3	-457.4201482E-3	2.5953919E+0	59.2000008E+0
280.1917817E-3	-478.3922920E-3	2.5936453E+0	59.2999992E+0
279.9786420E-3	-556.2436313E-3	2.5916772E+0	59.4000015E+0
279.7671202E-3	-579.2066598E-3	2.5897241E+0	59.5000000E+0
279.5700751E-3	-621.3687324E-3	2.5879047E+0	59.6000023E+0
279.3875773E-3	-639.9689507E-3	2.5862196E+0	59.7000008E+0
279.1685894E-3	-602.6998164E-3	2.5841975E+0	59.7999992E+0
278.9757881E-3	-567.5608552E-3	2.5824172E+0	59.9000015E+0
278.7753141E-3	-644.7479714E-3	2.5805662E+0	60.0000000E+0
278.5836963E-3	-624.0028716E-3	2.5787968E+0	60.1000023E+0
